*RAS_DATA_START
*RAS_HEADER_START
*CORR_POS_DB_NAME "Correct_20190620"
*CORR_POS_GONIO_RADIUS ""
*CORR_POS_NODE_INDEX01 ""
*CORR_POS_NODE_INDEX02 ""
*CORR_POS_NODE_INDEX03 ""
*CORR_POS_NODE_INDEX04 ""
*CORR_POS_NODE_INDEX05 ""
*CORR_POS_NODE_INDEX06 ""
*CORR_POS_NODE_INDEX07 ""
*CORR_POS_NODE_INDEX08 ""
*CORR_POS_NODE_INDEX09 ""
*CORR_POS_NODE_INDEX10 ""
*CORR_POS_NODE_INDEX11 ""
*CORR_POS_NODE_LABEL01 "Si(111)"
*CORR_POS_NODE_LABEL02 "Si(220)"
*CORR_POS_NODE_LABEL03 "Si(311)"
*CORR_POS_NODE_LABEL04 "Si(400)"
*CORR_POS_NODE_LABEL05 "Si(331)"
*CORR_POS_NODE_LABEL06 "Si(422)"
*CORR_POS_NODE_LABEL07 "Si(511)"
*CORR_POS_NODE_LABEL08 "Si(440)"
*CORR_POS_NODE_LABEL09 "Si(531)"
*CORR_POS_NODE_LABEL10 "Si(620)"
*CORR_POS_NODE_LABEL11 "Si(533)"
*CORR_POS_NODE_POS_CALC01 "28.4005"
*CORR_POS_NODE_POS_CALC02 "47.2634"
*CORR_POS_NODE_POS_CALC03 "56.0825"
*CORR_POS_NODE_POS_CALC04 "69.0892"
*CORR_POS_NODE_POS_CALC05 "76.335"
*CORR_POS_NODE_POS_CALC06 "87.989"
*CORR_POS_NODE_POS_CALC07 "94.9117"
*CORR_POS_NODE_POS_CALC08 "106.669"
*CORR_POS_NODE_POS_CALC09 "114.054"
*CORR_POS_NODE_POS_CALC10 "127.509"
*CORR_POS_NODE_POS_CALC11 "136.859"
*CORR_POS_NODE_POS_MEAS01 "28.3879"
*CORR_POS_NODE_POS_MEAS02 "47.243"
*CORR_POS_NODE_POS_MEAS03 "56.0511"
*CORR_POS_NODE_POS_MEAS04 "69.0708"
*CORR_POS_NODE_POS_MEAS05 "76.3178"
*CORR_POS_NODE_POS_MEAS06 "87.9728"
*CORR_POS_NODE_POS_MEAS07 "94.8964"
*CORR_POS_NODE_POS_MEAS08 "106.655"
*CORR_POS_NODE_POS_MEAS09 "114.033"
*CORR_POS_NODE_POS_MEAS10 "127.497"
*CORR_POS_NODE_POS_MEAS11 "136.844"
*CORR_POS_OPT_ATTR "集中法"
*CORR_POS_PARAM_MU ""
*CORR_POS_PARAM_PL ""
*CORR_POS_SEMODEL_TYPE "0"
*CORR_POS_STANDARD_TYPE ""
*CORR_POS_VALUE_ANALYZER "None"
*CORR_POS_VALUE_CMONO "None_None"
*CORR_POS_VALUE_IMONO "None"
*CORR_POS_VALUE_IS "1.250deg"
*CORR_POS_VALUE_ISL "10.0mm"
*CORR_POS_VALUE_ISOLLER "2.5deg"
*CORR_POS_VALUE_RS1 "13.0mm"
*CORR_POS_VALUE_RS2 "13.0mm"
*CORR_POS_VALUE_RSOLLER "2.5deg"
*CORR_POS_XG_FOCUS_L ""
*CORR_POS_XG_WAVE_TYPE ""
*CORR_POS_XG_WAVE_VALUE ""
*DISP_FMT_X "%.2f"
*DISP_FMT_Y "%.0f"
*DISP_FULLSCALE "104855.0000000000"
*DISP_LINE_COLOR "255.0000000000"
*DISP_LINE_STYLE "0.0000000000"
*DISP_LINE_WIDTH "0.2500000000"
*DISP_NOTE "測定データ-1"
*DISP_OFFSET_Y "0.0000000000"
*DISP_PEAKSEARCH_UNIT_Y "cps"
*DISP_RANGE_BOTTOM "0.0000000000"
*DISP_RANGE_LEFT "5.0000000000"
*DISP_RANGE_LOGCUTOFF "0.0100000000"
*DISP_RANGE_RIGHT "60.0000000000"
*DISP_RANGE_TOP "104855.0000000000"
*DISP_SCALE_MODE_Y "0.0000000000"
*DISP_TAB_NAME "2θ/θ"
*DISP_TITLE_Y "強度"
*DISP_UNIT_Y "cps"
*DISP_WINDOW_NAME "MSG_MACROENGINE"
*FILE_COMMENT " "
*FILE_MD5 ""
*FILE_MEMO " "
*FILE_OPERATOR "administrator"
*FILE_PART_ID "MEAS_PBEA_00223"
*FILE_SAMPLE " "
*FILE_TYPE "RAS_RAW"
*FILE_USERGROUP "システムマネージャ"
*FILE_VERSION "1.0000000000"
*HW_ATTACHMENT_ID "ATT1025"
*HW_ATTACHMENT_NAME "標準試料台|Standard Sample Stage"
*HW_COUNTER_ID-0 "CUT0025"
*HW_COUNTER_ID-1 "CUT0020"
*HW_COUNTER_ID-2 "CUT0020"
*HW_COUNTER_ID-3 "CMC0021"
*HW_COUNTER_NAME-0 "D/teX Ultra2|D/teX Ultra2"
*HW_COUNTER_NAME-1 "None|None"
*HW_COUNTER_NAME-2 "None|None"
*HW_COUNTER_NAME-3 "検出器モノクロメータ|Detector monochromator"
*HW_COUNTER_SELECT_NAME "D/teX Ultra2|D/teX Ultra2"
*HW_GONIOMETER_ID "GON0070"
*HW_GONIOMETER_NAME "MiniFlex 300/600|MiniFlex 300/600"
*HW_GONIOMETER_RADIUS-0 "79.0"
*HW_GONIOMETER_RADIUS-1 "91.5"
*HW_GONIOMETER_RADIUS-2 "150.0"
*HW_GONIOMETER_RADIUS-3 "0"
*HW_GONIOMETER_RADIUS-4 "92.7"
*HW_GONIOMETER_RADIUS-5 "139.3"
*HW_GONIOMETER_RADIUS-6 "46.6"
*HW_GONIOMETER_RADIUS-7 "150.0"
*HW_I_OPT_ID-0 "ISL0021"
*HW_I_OPT_ID-1 "ISO0021"
*HW_I_OPT_NAME-0 "発散スリット|Divergence slit"
*HW_I_OPT_NAME-1 "入射平行スリット|Incident parallel slit"
*HW_R_ATTENUATER_AUTOMODE "0"
*HW_R_OPT_ID-0 "RSS0021"
*HW_R_OPT_ID-1 "RSO0021"
*HW_R_OPT_ID-2 "RRS0021"
*HW_R_OPT_NAME-0 "散乱スリット|Scattering slit"
*HW_R_OPT_NAME-1 "受光平行スリット|Receiving soller slit"
*HW_R_OPT_NAME-2 "受光スリット|Receiving slit"
*HW_SAMPLE_HOLDER_ID "SMP0000"
*HW_SAMPLE_HOLDER_NAME "無し|None"
*HW_XG_CURRENT_MAX "15"
*HW_XG_CURRENT_MIN "2"
*HW_XG_CURRENT_RESOLUTION "1"
*HW_XG_CURRENT_UNIT "mA"
*HW_XG_FOCUS "1mm x 10mm"
*HW_XG_FOCUS_TYPE "Normal"
*HW_XG_ID "1060"
*HW_XG_NAME "300W/600W 封入管-B|300W/600W Sealed tube-B"
*HW_XG_TARGET_ATOMIC_NUMBER "29.0000000000"
*HW_XG_TARGET_NAME "Cu"
*HW_XG_TYPE "Hermetic"
*HW_XG_VOLTAGE_MAX "40"
*HW_XG_VOLTAGE_MIN "20"
*HW_XG_VOLTAGE_RESOLUTION "1"
*HW_XG_VOLTAGE_UNIT "kV"
*HW_XG_WATT_MAX "1"
*HW_XG_WATT_UNIT "kW"
*HW_XG_WAVE_LENGTH_ALPHA1 "1.540593"
*HW_XG_WAVE_LENGTH_ALPHA2 "1.544414"
*HW_XG_WAVE_LENGTH_BETA "1.392250"
*MEAS_COND_AXIS_NAME-0 "2θ/θ"
*MEAS_COND_AXIS_NAME-1 "Soller(inc.)"
*MEAS_COND_AXIS_NAME-2 "IHS"
*MEAS_COND_AXIS_NAME-3 "DS"
*MEAS_COND_AXIS_NAME-4 "SS"
*MEAS_COND_AXIS_NAME-5 "Soller(rec.)"
*MEAS_COND_AXIS_NAME-6 "RS"
*MEAS_COND_AXIS_NAME-7 "フィルター"
*MEAS_COND_AXIS_NAME-8 "モノクロメータ"
*MEAS_COND_AXIS_NAME-9 "PHA"
*MEAS_COND_AXIS_NAME_INTERNAL-0 "TwoThetaTheta"
*MEAS_COND_AXIS_NAME_INTERNAL-1 "IncidentSollerSlit"
*MEAS_COND_AXIS_NAME_INTERNAL-2 "IncidentAxdSlit"
*MEAS_COND_AXIS_NAME_INTERNAL-3 "IncidentSlitBox"
*MEAS_COND_AXIS_NAME_INTERNAL-4 "ReceivingSlitBox1"
*MEAS_COND_AXIS_NAME_INTERNAL-5 "ReceivingSollerSlit"
*MEAS_COND_AXIS_NAME_INTERNAL-6 "ReceivingSlitBox2"
*MEAS_COND_AXIS_NAME_INTERNAL-7 "Filter"
*MEAS_COND_AXIS_NAME_INTERNAL-8 "CounterMonochromator"
*MEAS_COND_AXIS_NAME_INTERNAL-9 "PHA"
*MEAS_COND_AXIS_NAME_MAGICNO-0 "268632064.0000000000"
*MEAS_COND_AXIS_NAME_MAGICNO-1 "20971521.0000000000"
*MEAS_COND_AXIS_NAME_MAGICNO-2 "22020097.0000000000"
*MEAS_COND_AXIS_NAME_MAGICNO-3 "22020097.0000000000"
*MEAS_COND_AXIS_NAME_MAGICNO-4 "23068673.0000000000"
*MEAS_COND_AXIS_NAME_MAGICNO-5 "20971521.0000000000"
*MEAS_COND_AXIS_NAME_MAGICNO-6 "23068673.0000000000"
*MEAS_COND_AXIS_NAME_MAGICNO-7 "20971521.0000000000"
*MEAS_COND_AXIS_NAME_MAGICNO-8 "20971521.0000000000"
*MEAS_COND_AXIS_NAME_MAGICNO-9 "0.0000000000"
*MEAS_COND_AXIS_OFFSET-0 "0.0000000000"
*MEAS_COND_AXIS_OFFSET-1 "-"
*MEAS_COND_AXIS_OFFSET-2 "-"
*MEAS_COND_AXIS_OFFSET-3 "-"
*MEAS_COND_AXIS_OFFSET-4 "-"
*MEAS_COND_AXIS_OFFSET-5 "-"
*MEAS_COND_AXIS_OFFSET-6 "-"
*MEAS_COND_AXIS_OFFSET-7 "-"
*MEAS_COND_AXIS_OFFSET-8 "-"
*MEAS_COND_AXIS_OFFSET-9 "-"
*MEAS_COND_AXIS_POSITION-0 "12.0000000000"
*MEAS_COND_AXIS_POSITION-1 "2.5deg"
*MEAS_COND_AXIS_POSITION-2 "10.0mm"
*MEAS_COND_AXIS_POSITION-3 "1.250deg"
*MEAS_COND_AXIS_POSITION-4 "8.0mm"
*MEAS_COND_AXIS_POSITION-5 "2.5deg"
*MEAS_COND_AXIS_POSITION-6 "13.0mm(Open)"
*MEAS_COND_AXIS_POSITION-7 "K-beta(x1.5)"
*MEAS_COND_AXIS_POSITION-8 "None"
*MEAS_COND_AXIS_POSITION-9 "36.0000000000"
*MEAS_COND_AXIS_UNIT-0 "deg"
*MEAS_COND_AXIS_UNIT-1 ""
*MEAS_COND_AXIS_UNIT-2 ""
*MEAS_COND_AXIS_UNIT-3 ""
*MEAS_COND_AXIS_UNIT-4 ""
*MEAS_COND_AXIS_UNIT-5 ""
*MEAS_COND_AXIS_UNIT-6 ""
*MEAS_COND_AXIS_UNIT-7 ""
*MEAS_COND_AXIS_UNIT-8 ""
*MEAS_COND_AXIS_UNIT-9 "div"
*MEAS_COND_CORRECTION_SLIT_COUNTERMONO "None"
*MEAS_COND_CORRECTION_SLIT_DS "1.250deg"
*MEAS_COND_CORRECTION_SLIT_FILTER "None"
*MEAS_COND_CORRECTION_SLIT_IHS "10.0mm"
*MEAS_COND_CORRECTION_SLIT_RS "13.0mm"
*MEAS_COND_CORRECTION_SLIT_SOLLER_INC "2.5deg"
*MEAS_COND_CORRECTION_SLIT_SOLLER_REC "2.5deg"
*MEAS_COND_CORRECTION_SLIT_SS "8.0mm"
*MEAS_COND_COUNTER_CNTLOSS_CORR "0.0000000000"
*MEAS_COND_COUNTER_PHABASE "36.0000000000"
*MEAS_COND_COUNTER_PHAWINDOW "16.0000000000"
*MEAS_COND_COUNTER_PHA_UNIT "div"
*MEAS_COND_COUNTER_TAUDIFF "0.2500000000"
*MEAS_COND_COUNTER_TAUINT "0.7500000000"
*MEAS_COND_IRRADIATION_MODE "OFF"
*MEAS_COND_IRRADIATION_WIDTH ""
*MEAS_COND_OPT_ATTR " "
*MEAS_COND_OPT_NAME ""
*MEAS_COND_UNSYMMETRIC_MODE "OFF"
*MEAS_COND_XG_CURRENT "15.0000000000"
*MEAS_COND_XG_VOLTAGE "40.0000000000"
*MEAS_COND_XG_WAVE_TYPE "Ka"
*MEAS_DATA_COUNT "2751.0000000000"
*MEAS_SCAN_AXIS_X "2θ/θ"
*MEAS_SCAN_AXIS_X_INTERNAL "TwoThetaTheta"
*MEAS_SCAN_END_TIME "08/31/20 12:37:00"
*MEAS_SCAN_MODE "CONTINUOUS"
*MEAS_SCAN_MONITOR "0"
*MEAS_SCAN_RESOLUTION_X "0.0025"
*MEAS_SCAN_SPEED "5.000000"
*MEAS_SCAN_SPEED_UNIT "deg/min"
*MEAS_SCAN_SPEED_USER "5.000000"
*MEAS_SCAN_START "5.0000000000"
*MEAS_SCAN_START_TIME "08/31/20 12:24:43"
*MEAS_SCAN_STEP "0.0200000000"
*MEAS_SCAN_STOP "60.0000000000"
*MEAS_SCAN_UNIT_X "deg"
*MEAS_SCAN_UNIT_Y "counts"
*SLIT_SYSTEM "0"
*RAS_HEADER_END
*RAS_INT_START
5.0000 493.0000 1.0000
5.0200 513.0000 1.0000
5.0400 415.0000 1.0000
5.0600 472.0000 1.0000
5.0800 474.0000 1.0000
5.1000 428.0000 1.0000
5.1200 419.0000 1.0000
5.1400 425.0000 1.0000
5.1600 463.0000 1.0000
5.1800 505.0000 1.0000
5.2000 485.0000 1.0000
5.2200 508.0000 1.0000
5.2400 488.0000 1.0000
5.2600 462.0000 1.0000
5.2800 492.0000 1.0000
5.3000 483.0000 1.0000
5.3200 428.0000 1.0000
5.3400 500.0000 1.0000
5.3600 505.0000 1.0000
5.3800 479.0000 1.0000
5.4000 467.0000 1.0000
5.4200 475.0000 1.0000
5.4400 443.0000 1.0000
5.4600 496.0000 1.0000
5.4800 474.0000 1.0000
5.5000 486.0000 1.0000
5.5200 585.0000 1.0000
5.5400 499.0000 1.0000
5.5600 551.0000 1.0000
5.5800 562.0000 1.0000
5.6000 490.0000 1.0000
5.6200 498.0000 1.0000
5.6400 407.0000 1.0000
5.6600 462.0000 1.0000
5.6800 473.0000 1.0000
5.7000 485.0000 1.0000
5.7200 441.0000 1.0000
5.7400 514.0000 1.0000
5.7600 548.0000 1.0000
5.7800 462.0000 1.0000
5.8000 518.0000 1.0000
5.8200 533.0000 1.0000
5.8400 496.0000 1.0000
5.8600 478.0000 1.0000
5.8800 492.0000 1.0000
5.9000 462.0000 1.0000
5.9200 426.0000 1.0000
5.9400 506.0000 1.0000
5.9600 498.0000 1.0000
5.9800 497.0000 1.0000
6.0000 482.0000 1.0000
6.0200 462.0000 1.0000
6.0400 476.0000 1.0000
6.0600 444.0000 1.0000
6.0800 476.0000 1.0000
6.1000 530.0000 1.0000
6.1200 500.0000 1.0000
6.1400 499.0000 1.0000
6.1600 476.0000 1.0000
6.1800 508.0000 1.0000
6.2000 455.0000 1.0000
6.2200 456.0000 1.0000
6.2400 461.0000 1.0000
6.2600 510.0000 1.0000
6.2800 479.0000 1.0000
6.3000 471.0000 1.0000
6.3200 461.0000 1.0000
6.3400 457.0000 1.0000
6.3600 487.0000 1.0000
6.3800 474.0000 1.0000
6.4000 484.0000 1.0000
6.4200 495.0000 1.0000
6.4400 534.0000 1.0000
6.4600 518.0000 1.0000
6.4800 461.0000 1.0000
6.5000 555.0000 1.0000
6.5200 490.0000 1.0000
6.5400 520.0000 1.0000
6.5600 458.0000 1.0000
6.5800 466.0000 1.0000
6.6000 484.0000 1.0000
6.6200 480.0000 1.0000
6.6400 523.0000 1.0000
6.6600 466.0000 1.0000
6.6800 542.0000 1.0000
6.7000 471.0000 1.0000
6.7200 500.0000 1.0000
6.7400 491.0000 1.0000
6.7600 519.0000 1.0000
6.7800 576.0000 1.0000
6.8000 483.0000 1.0000
6.8200 444.0000 1.0000
6.8400 511.0000 1.0000
6.8600 463.0000 1.0000
6.8800 497.0000 1.0000
6.9000 517.0000 1.0000
6.9200 480.0000 1.0000
6.9400 479.0000 1.0000
6.9600 472.0000 1.0000
6.9800 482.0000 1.0000
7.0000 512.0000 1.0000
7.0200 500.0000 1.0000
7.0400 456.0000 1.0000
7.0600 447.0000 1.0000
7.0800 504.0000 1.0000
7.1000 468.0000 1.0000
7.1200 438.0000 1.0000
7.1400 450.0000 1.0000
7.1600 498.0000 1.0000
7.1800 505.0000 1.0000
7.2000 480.0000 1.0000
7.2200 512.0000 1.0000
7.2400 459.0000 1.0000
7.2600 491.0000 1.0000
7.2800 498.0000 1.0000
7.3000 502.0000 1.0000
7.3200 459.0000 1.0000
7.3400 519.0000 1.0000
7.3600 470.0000 1.0000
7.3800 476.0000 1.0000
7.4000 482.0000 1.0000
7.4200 456.0000 1.0000
7.4400 500.0000 1.0000
7.4600 503.0000 1.0000
7.4800 465.0000 1.0000
7.5000 506.0000 1.0000
7.5200 455.0000 1.0000
7.5400 481.0000 1.0000
7.5600 529.0000 1.0000
7.5800 409.0000 1.0000
7.6000 484.0000 1.0000
7.6200 515.0000 1.0000
7.6400 479.0000 1.0000
7.6600 463.0000 1.0000
7.6800 496.0000 1.0000
7.7000 509.0000 1.0000
7.7200 474.0000 1.0000
7.7400 478.0000 1.0000
7.7600 522.0000 1.0000
7.7800 391.0000 1.0000
7.8000 422.0000 1.0000
7.8200 514.0000 1.0000
7.8400 496.0000 1.0000
7.8600 492.0000 1.0000
7.8800 472.0000 1.0000
7.9000 487.0000 1.0000
7.9200 500.0000 1.0000
7.9400 468.0000 1.0000
7.9600 483.0000 1.0000
7.9800 506.0000 1.0000
8.0000 509.0000 1.0000
8.0200 482.0000 1.0000
8.0400 495.0000 1.0000
8.0600 489.0000 1.0000
8.0800 502.0000 1.0000
8.1000 519.0000 1.0000
8.1200 506.0000 1.0000
8.1400 519.0000 1.0000
8.1600 474.0000 1.0000
8.1800 550.0000 1.0000
8.2000 567.0000 1.0000
8.2200 570.0000 1.0000
8.2400 664.0000 1.0000
8.2600 622.0000 1.0000
8.2800 591.0000 1.0000
8.3000 556.0000 1.0000
8.3200 568.0000 1.0000
8.3400 562.0000 1.0000
8.3600 541.0000 1.0000
8.3800 519.0000 1.0000
8.4000 492.0000 1.0000
8.4200 468.0000 1.0000
8.4400 509.0000 1.0000
8.4600 455.0000 1.0000
8.4800 463.0000 1.0000
8.5000 464.0000 1.0000
8.5200 507.0000 1.0000
8.5400 464.0000 1.0000
8.5600 458.0000 1.0000
8.5800 479.0000 1.0000
8.6000 445.0000 1.0000
8.6200 468.0000 1.0000
8.6400 491.0000 1.0000
8.6600 462.0000 1.0000
8.6800 476.0000 1.0000
8.7000 457.0000 1.0000
8.7200 454.0000 1.0000
8.7400 464.0000 1.0000
8.7600 495.0000 1.0000
8.7800 498.0000 1.0000
8.8000 516.0000 1.0000
8.8200 468.0000 1.0000
8.8400 463.0000 1.0000
8.8600 496.0000 1.0000
8.8800 465.0000 1.0000
8.9000 433.0000 1.0000
8.9200 476.0000 1.0000
8.9400 449.0000 1.0000
8.9600 478.0000 1.0000
8.9800 452.0000 1.0000
9.0000 471.0000 1.0000
9.0200 418.0000 1.0000
9.0400 422.0000 1.0000
9.0600 481.0000 1.0000
9.0800 475.0000 1.0000
9.1000 464.0000 1.0000
9.1200 453.0000 1.0000
9.1400 466.0000 1.0000
9.1600 496.0000 1.0000
9.1800 470.0000 1.0000
9.2000 445.0000 1.0000
9.2200 450.0000 1.0000
9.2400 487.0000 1.0000
9.2600 476.0000 1.0000
9.2800 457.0000 1.0000
9.3000 458.0000 1.0000
9.3200 455.0000 1.0000
9.3400 396.0000 1.0000
9.3600 415.0000 1.0000
9.3800 422.0000 1.0000
9.4000 423.0000 1.0000
9.4200 423.0000 1.0000
9.4400 432.0000 1.0000
9.4600 462.0000 1.0000
9.4800 414.0000 1.0000
9.5000 439.0000 1.0000
9.5200 475.0000 1.0000
9.5400 447.0000 1.0000
9.5600 452.0000 1.0000
9.5800 490.0000 1.0000
9.6000 430.0000 1.0000
9.6200 445.0000 1.0000
9.6400 473.0000 1.0000
9.6600 464.0000 1.0000
9.6800 463.0000 1.0000
9.7000 447.0000 1.0000
9.7200 427.0000 1.0000
9.7400 462.0000 1.0000
9.7600 454.0000 1.0000
9.7800 424.0000 1.0000
9.8000 435.0000 1.0000
9.8200 430.0000 1.0000
9.8400 433.0000 1.0000
9.8600 444.0000 1.0000
9.8800 454.0000 1.0000
9.9000 429.0000 1.0000
9.9200 424.0000 1.0000
9.9400 406.0000 1.0000
9.9600 430.0000 1.0000
9.9800 427.0000 1.0000
10.0000 400.0000 1.0000
10.0200 435.0000 1.0000
10.0400 447.0000 1.0000
10.0600 461.0000 1.0000
10.0800 462.0000 1.0000
10.1000 437.0000 1.0000
10.1200 412.0000 1.0000
10.1400 453.0000 1.0000
10.1600 464.0000 1.0000
10.1800 444.0000 1.0000
10.2000 427.0000 1.0000
10.2200 404.0000 1.0000
10.2400 409.0000 1.0000
10.2600 428.0000 1.0000
10.2800 395.0000 1.0000
10.3000 407.0000 1.0000
10.3200 411.0000 1.0000
10.3400 412.0000 1.0000
10.3600 411.0000 1.0000
10.3800 434.0000 1.0000
10.4000 417.0000 1.0000
10.4200 429.0000 1.0000
10.4400 403.0000 1.0000
10.4600 415.0000 1.0000
10.4800 437.0000 1.0000
10.5000 427.0000 1.0000
10.5200 439.0000 1.0000
10.5400 426.0000 1.0000
10.5600 421.0000 1.0000
10.5800 417.0000 1.0000
10.6000 418.0000 1.0000
10.6200 394.0000 1.0000
10.6400 385.0000 1.0000
10.6600 396.0000 1.0000
10.6800 399.0000 1.0000
10.7000 397.0000 1.0000
10.7200 410.0000 1.0000
10.7400 397.0000 1.0000
10.7600 381.0000 1.0000
10.7800 378.0000 1.0000
10.8000 410.0000 1.0000
10.8200 408.0000 1.0000
10.8400 404.0000 1.0000
10.8600 386.0000 1.0000
10.8800 400.0000 1.0000
10.9000 394.0000 1.0000
10.9200 384.0000 1.0000
10.9400 393.0000 1.0000
10.9600 392.0000 1.0000
10.9800 393.0000 1.0000
11.0000 401.0000 1.0000
11.0200 419.0000 1.0000
11.0400 390.0000 1.0000
11.0600 380.0000 1.0000
11.0800 390.0000 1.0000
11.1000 419.0000 1.0000
11.1200 429.0000 1.0000
11.1400 430.0000 1.0000
11.1600 394.0000 1.0000
11.1800 408.0000 1.0000
11.2000 414.0000 1.0000
11.2200 410.0000 1.0000
11.2400 381.0000 1.0000
11.2600 369.0000 1.0000
11.2800 403.0000 1.0000
11.3000 412.0000 1.0000
11.3200 391.0000 1.0000
11.3400 391.0000 1.0000
11.3600 405.0000 1.0000
11.3800 401.0000 1.0000
11.4000 402.0000 1.0000
11.4200 404.0000 1.0000
11.4400 420.0000 1.0000
11.4600 388.0000 1.0000
11.4800 383.0000 1.0000
11.5000 382.0000 1.0000
11.5200 367.0000 1.0000
11.5400 392.0000 1.0000
11.5600 391.0000 1.0000
11.5800 363.0000 1.0000
11.6000 366.0000 1.0000
11.6200 377.0000 1.0000
11.6400 406.0000 1.0000
11.6600 411.0000 1.0000
11.6800 397.0000 1.0000
11.7000 411.0000 1.0000
11.7200 404.0000 1.0000
11.7400 406.0000 1.0000
11.7600 386.0000 1.0000
11.7800 397.0000 1.0000
11.8000 417.0000 1.0000
11.8200 405.0000 1.0000
11.8400 374.0000 1.0000
11.8600 363.0000 1.0000
11.8800 379.0000 1.0000
11.9000 391.0000 1.0000
11.9200 394.0000 1.0000
11.9400 401.0000 1.0000
11.9600 411.0000 1.0000
11.9800 400.0000 1.0000
12.0000 387.0000 1.0000
12.0200 373.0000 1.0000
12.0400 357.0000 1.0000
12.0600 372.0000 1.0000
12.0800 395.0000 1.0000
12.1000 399.0000 1.0000
12.1200 383.0000 1.0000
12.1400 397.0000 1.0000
12.1600 400.0000 1.0000
12.1800 373.0000 1.0000
12.2000 371.0000 1.0000
12.2200 370.0000 1.0000
12.2400 345.0000 1.0000
12.2600 352.0000 1.0000
12.2800 381.0000 1.0000
12.3000 383.0000 1.0000
12.3200 386.0000 1.0000
12.3400 373.0000 1.0000
12.3600 368.0000 1.0000
12.3800 375.0000 1.0000
12.4000 368.0000 1.0000
12.4200 354.0000 1.0000
12.4400 368.0000 1.0000
12.4600 365.0000 1.0000
12.4800 366.0000 1.0000
12.5000 388.0000 1.0000
12.5200 393.0000 1.0000
12.5400 394.0000 1.0000
12.5600 386.0000 1.0000
12.5800 378.0000 1.0000
12.6000 370.0000 1.0000
12.6200 379.0000 1.0000
12.6400 377.0000 1.0000
12.6600 363.0000 1.0000
12.6800 366.0000 1.0000
12.7000 359.0000 1.0000
12.7200 343.0000 1.0000
12.7400 366.0000 1.0000
12.7600 362.0000 1.0000
12.7800 373.0000 1.0000
12.8000 374.0000 1.0000
12.8200 368.0000 1.0000
12.8400 388.0000 1.0000
12.8600 375.0000 1.0000
12.8800 370.0000 1.0000
12.9000 373.0000 1.0000
12.9200 371.0000 1.0000
12.9400 363.0000 1.0000
12.9600 342.0000 1.0000
12.9800 334.0000 1.0000
13.0000 334.0000 1.0000
13.0200 346.0000 1.0000
13.0400 349.0000 1.0000
13.0600 362.0000 1.0000
13.0800 382.0000 1.0000
13.1000 380.0000 1.0000
13.1200 368.0000 1.0000
13.1400 356.0000 1.0000
13.1600 361.0000 1.0000
13.1800 358.0000 1.0000
13.2000 347.0000 1.0000
13.2200 350.0000 1.0000
13.2400 349.0000 1.0000
13.2600 343.0000 1.0000
13.2800 362.0000 1.0000
13.3000 369.0000 1.0000
13.3200 379.0000 1.0000
13.3400 408.0000 1.0000
13.3600 396.0000 1.0000
13.3800 352.0000 1.0000
13.4000 338.0000 1.0000
13.4200 326.0000 1.0000
13.4400 347.0000 1.0000
13.4600 354.0000 1.0000
13.4800 350.0000 1.0000
13.5000 362.0000 1.0000
13.5200 364.0000 1.0000
13.5400 381.0000 1.0000
13.5600 393.0000 1.0000
13.5800 394.0000 1.0000
13.6000 416.0000 1.0000
13.6200 411.0000 1.0000
13.6400 398.0000 1.0000
13.6600 410.0000 1.0000
13.6800 419.0000 1.0000
13.7000 417.0000 1.0000
13.7200 413.0000 1.0000
13.7400 403.0000 1.0000
13.7600 398.0000 1.0000
13.7800 424.0000 1.0000
13.8000 464.0000 1.0000
13.8200 504.0000 1.0000
13.8400 580.0000 1.0000
13.8600 693.0000 1.0000
13.8800 801.0000 1.0000
13.9000 1014.0000 1.0000
13.9200 1328.0000 1.0000
13.9400 1677.0000 1.0000
13.9600 2136.0000 1.0000
13.9800 2695.0000 1.0000
14.0000 3342.0000 1.0000
14.0200 3982.0000 1.0000
14.0400 4463.0000 1.0000
14.0600 4767.0000 1.0000
14.0800 4834.0000 1.0000
14.1000 4616.0000 1.0000
14.1200 4382.0000 1.0000
14.1400 4135.0000 1.0000
14.1600 3780.0000 1.0000
14.1800 3374.0000 1.0000
14.2000 2942.0000 1.0000
14.2200 2415.0000 1.0000
14.2400 1802.0000 1.0000
14.2600 1314.0000 1.0000
14.2800 957.0000 1.0000
14.3000 705.0000 1.0000
14.3200 578.0000 1.0000
14.3400 504.0000 1.0000
14.3600 472.0000 1.0000
14.3800 445.0000 1.0000
14.4000 430.0000 1.0000
