*RAS_DATA_START
*RAS_HEADER_START
*CORR_POS_DB_NAME "Correct_20190620"
*CORR_POS_GONIO_RADIUS ""
*CORR_POS_NODE_INDEX01 ""
*CORR_POS_NODE_INDEX02 ""
*CORR_POS_NODE_INDEX03 ""
*CORR_POS_NODE_INDEX04 ""
*CORR_POS_NODE_INDEX05 ""
*CORR_POS_NODE_INDEX06 ""
*CORR_POS_NODE_INDEX07 ""
*CORR_POS_NODE_INDEX08 ""
*CORR_POS_NODE_INDEX09 ""
*CORR_POS_NODE_INDEX10 ""
*CORR_POS_NODE_INDEX11 ""
*CORR_POS_NODE_LABEL01 "Si(111)"
*CORR_POS_NODE_LABEL02 "Si(220)"
*CORR_POS_NODE_LABEL03 "Si(311)"
*CORR_POS_NODE_LABEL04 "Si(400)"
*CORR_POS_NODE_LABEL05 "Si(331)"
*CORR_POS_NODE_LABEL06 "Si(422)"
*CORR_POS_NODE_LABEL07 "Si(511)"
*CORR_POS_NODE_LABEL08 "Si(440)"
*CORR_POS_NODE_LABEL09 "Si(531)"
*CORR_POS_NODE_LABEL10 "Si(620)"
*CORR_POS_NODE_LABEL11 "Si(533)"
*CORR_POS_NODE_POS_CALC01 "28.4005"
*CORR_POS_NODE_POS_CALC02 "47.2634"
*CORR_POS_NODE_POS_CALC03 "56.0825"
*CORR_POS_NODE_POS_CALC04 "69.0892"
*CORR_POS_NODE_POS_CALC05 "76.335"
*CORR_POS_NODE_POS_CALC06 "87.989"
*CORR_POS_NODE_POS_CALC07 "94.9117"
*CORR_POS_NODE_POS_CALC08 "106.669"
*CORR_POS_NODE_POS_CALC09 "114.054"
*CORR_POS_NODE_POS_CALC10 "127.509"
*CORR_POS_NODE_POS_CALC11 "136.859"
*CORR_POS_NODE_POS_MEAS01 "28.3879"
*CORR_POS_NODE_POS_MEAS02 "47.243"
*CORR_POS_NODE_POS_MEAS03 "56.0511"
*CORR_POS_NODE_POS_MEAS04 "69.0708"
*CORR_POS_NODE_POS_MEAS05 "76.3178"
*CORR_POS_NODE_POS_MEAS06 "87.9728"
*CORR_POS_NODE_POS_MEAS07 "94.8964"
*CORR_POS_NODE_POS_MEAS08 "106.655"
*CORR_POS_NODE_POS_MEAS09 "114.033"
*CORR_POS_NODE_POS_MEAS10 "127.497"
*CORR_POS_NODE_POS_MEAS11 "136.844"
*CORR_POS_OPT_ATTR "集中法"
*CORR_POS_PARAM_MU ""
*CORR_POS_PARAM_PL ""
*CORR_POS_SEMODEL_TYPE "0"
*CORR_POS_STANDARD_TYPE ""
*CORR_POS_VALUE_ANALYZER "None"
*CORR_POS_VALUE_CMONO "None_None"
*CORR_POS_VALUE_IMONO "None"
*CORR_POS_VALUE_IS "1.250deg"
*CORR_POS_VALUE_ISL "10.0mm"
*CORR_POS_VALUE_ISOLLER "2.5deg"
*CORR_POS_VALUE_RS1 "13.0mm"
*CORR_POS_VALUE_RS2 "13.0mm"
*CORR_POS_VALUE_RSOLLER "2.5deg"
*CORR_POS_XG_FOCUS_L ""
*CORR_POS_XG_WAVE_TYPE ""
*CORR_POS_XG_WAVE_VALUE ""
*DISP_FMT_X "%.2f"
*DISP_FMT_Y "%.0f"
*DISP_FULLSCALE "6185.0000000000"
*DISP_LINE_COLOR "255.0000000000"
*DISP_LINE_STYLE "0.0000000000"
*DISP_LINE_WIDTH "0.2500000000"
*DISP_NOTE "測定データ-4"
*DISP_OFFSET_Y "0.0000000000"
*DISP_PEAKSEARCH_UNIT_Y "cps"
*DISP_RANGE_BOTTOM "0.0000000000"
*DISP_RANGE_LEFT "5.0000000000"
*DISP_RANGE_LOGCUTOFF "0.0100000000"
*DISP_RANGE_RIGHT "60.0000000000"
*DISP_RANGE_TOP "6185.0000000000"
*DISP_SCALE_MODE_Y "0.0000000000"
*DISP_TAB_NAME "2θ/θ"
*DISP_TITLE_Y "強度"
*DISP_UNIT_Y "cps"
*DISP_WINDOW_NAME "MSG_MACROENGINE"
*FILE_COMMENT " "
*FILE_MD5 ""
*FILE_MEMO " "
*FILE_OPERATOR "administrator"
*FILE_PART_ID "MEAS_PBEA_00223"
*FILE_SAMPLE " "
*FILE_TYPE "RAS_RAW"
*FILE_USERGROUP "システムマネージャ"
*FILE_VERSION "1.0000000000"
*HW_ATTACHMENT_ID "ATT1025"
*HW_ATTACHMENT_NAME "標準試料台|Standard Sample Stage"
*HW_COUNTER_ID-0 "CUT0025"
*HW_COUNTER_ID-1 "CUT0020"
*HW_COUNTER_ID-2 "CUT0020"
*HW_COUNTER_ID-3 "CMC0021"
*HW_COUNTER_NAME-0 "D/teX Ultra2|D/teX Ultra2"
*HW_COUNTER_NAME-1 "None|None"
*HW_COUNTER_NAME-2 "None|None"
*HW_COUNTER_NAME-3 "検出器モノクロメータ|Detector monochromator"
*HW_COUNTER_SELECT_NAME "D/teX Ultra2|D/teX Ultra2"
*HW_GONIOMETER_ID "GON0070"
*HW_GONIOMETER_NAME "MiniFlex 300/600|MiniFlex 300/600"
*HW_GONIOMETER_RADIUS-0 "79.0"
*HW_GONIOMETER_RADIUS-1 "91.5"
*HW_GONIOMETER_RADIUS-2 "150.0"
*HW_GONIOMETER_RADIUS-3 "0"
*HW_GONIOMETER_RADIUS-4 "92.7"
*HW_GONIOMETER_RADIUS-5 "139.3"
*HW_GONIOMETER_RADIUS-6 "46.6"
*HW_GONIOMETER_RADIUS-7 "150.0"
*HW_I_OPT_ID-0 "ISL0021"
*HW_I_OPT_ID-1 "ISO0021"
*HW_I_OPT_NAME-0 "発散スリット|Divergence slit"
*HW_I_OPT_NAME-1 "入射平行スリット|Incident parallel slit"
*HW_R_ATTENUATER_AUTOMODE "0"
*HW_R_OPT_ID-0 "RSS0021"
*HW_R_OPT_ID-1 "RSO0021"
*HW_R_OPT_ID-2 "RRS0021"
*HW_R_OPT_NAME-0 "散乱スリット|Scattering slit"
*HW_R_OPT_NAME-1 "受光平行スリット|Receiving soller slit"
*HW_R_OPT_NAME-2 "受光スリット|Receiving slit"
*HW_SAMPLE_HOLDER_ID "SMP0000"
*HW_SAMPLE_HOLDER_NAME "無し|None"
*HW_XG_CURRENT_MAX "15"
*HW_XG_CURRENT_MIN "2"
*HW_XG_CURRENT_RESOLUTION "1"
*HW_XG_CURRENT_UNIT "mA"
*HW_XG_FOCUS "1mm x 10mm"
*HW_XG_FOCUS_TYPE "Normal"
*HW_XG_ID "1060"
*HW_XG_NAME "300W/600W 封入管-B|300W/600W Sealed tube-B"
*HW_XG_TARGET_ATOMIC_NUMBER "29.0000000000"
*HW_XG_TARGET_NAME "Cu"
*HW_XG_TYPE "Hermetic"
*HW_XG_VOLTAGE_MAX "40"
*HW_XG_VOLTAGE_MIN "20"
*HW_XG_VOLTAGE_RESOLUTION "1"
*HW_XG_VOLTAGE_UNIT "kV"
*HW_XG_WATT_MAX "1"
*HW_XG_WATT_UNIT "kW"
*HW_XG_WAVE_LENGTH_ALPHA1 "1.540593"
*HW_XG_WAVE_LENGTH_ALPHA2 "1.544414"
*HW_XG_WAVE_LENGTH_BETA "1.392250"
*MEAS_COND_AXIS_NAME-0 "2θ/θ"
*MEAS_COND_AXIS_NAME-1 "Soller(inc.)"
*MEAS_COND_AXIS_NAME-2 "IHS"
*MEAS_COND_AXIS_NAME-3 "DS"
*MEAS_COND_AXIS_NAME-4 "SS"
*MEAS_COND_AXIS_NAME-5 "Soller(rec.)"
*MEAS_COND_AXIS_NAME-6 "RS"
*MEAS_COND_AXIS_NAME-7 "フィルター"
*MEAS_COND_AXIS_NAME-8 "モノクロメータ"
*MEAS_COND_AXIS_NAME-9 "PHA"
*MEAS_COND_AXIS_NAME_INTERNAL-0 "TwoThetaTheta"
*MEAS_COND_AXIS_NAME_INTERNAL-1 "IncidentSollerSlit"
*MEAS_COND_AXIS_NAME_INTERNAL-2 "IncidentAxdSlit"
*MEAS_COND_AXIS_NAME_INTERNAL-3 "IncidentSlitBox"
*MEAS_COND_AXIS_NAME_INTERNAL-4 "ReceivingSlitBox1"
*MEAS_COND_AXIS_NAME_INTERNAL-5 "ReceivingSollerSlit"
*MEAS_COND_AXIS_NAME_INTERNAL-6 "ReceivingSlitBox2"
*MEAS_COND_AXIS_NAME_INTERNAL-7 "Filter"
*MEAS_COND_AXIS_NAME_INTERNAL-8 "CounterMonochromator"
*MEAS_COND_AXIS_NAME_INTERNAL-9 "PHA"
*MEAS_COND_AXIS_NAME_MAGICNO-0 "268632064.0000000000"
*MEAS_COND_AXIS_NAME_MAGICNO-1 "20971521.0000000000"
*MEAS_COND_AXIS_NAME_MAGICNO-2 "22020097.0000000000"
*MEAS_COND_AXIS_NAME_MAGICNO-3 "22020097.0000000000"
*MEAS_COND_AXIS_NAME_MAGICNO-4 "23068673.0000000000"
*MEAS_COND_AXIS_NAME_MAGICNO-5 "20971521.0000000000"
*MEAS_COND_AXIS_NAME_MAGICNO-6 "23068673.0000000000"
*MEAS_COND_AXIS_NAME_MAGICNO-7 "20971521.0000000000"
*MEAS_COND_AXIS_NAME_MAGICNO-8 "20971521.0000000000"
*MEAS_COND_AXIS_NAME_MAGICNO-9 "0.0000000000"
*MEAS_COND_AXIS_OFFSET-0 "0.0000000000"
*MEAS_COND_AXIS_OFFSET-1 "-"
*MEAS_COND_AXIS_OFFSET-2 "-"
*MEAS_COND_AXIS_OFFSET-3 "-"
*MEAS_COND_AXIS_OFFSET-4 "-"
*MEAS_COND_AXIS_OFFSET-5 "-"
*MEAS_COND_AXIS_OFFSET-6 "-"
*MEAS_COND_AXIS_OFFSET-7 "-"
*MEAS_COND_AXIS_OFFSET-8 "-"
*MEAS_COND_AXIS_OFFSET-9 "-"
*MEAS_COND_AXIS_POSITION-0 "12.0000000000"
*MEAS_COND_AXIS_POSITION-1 "2.5deg"
*MEAS_COND_AXIS_POSITION-2 "10.0mm"
*MEAS_COND_AXIS_POSITION-3 "1.250deg"
*MEAS_COND_AXIS_POSITION-4 "8.0mm"
*MEAS_COND_AXIS_POSITION-5 "2.5deg"
*MEAS_COND_AXIS_POSITION-6 "13.0mm(Open)"
*MEAS_COND_AXIS_POSITION-7 "K-beta(x1.5)"
*MEAS_COND_AXIS_POSITION-8 "None"
*MEAS_COND_AXIS_POSITION-9 "36.0000000000"
*MEAS_COND_AXIS_UNIT-0 "deg"
*MEAS_COND_AXIS_UNIT-1 ""
*MEAS_COND_AXIS_UNIT-2 ""
*MEAS_COND_AXIS_UNIT-3 ""
*MEAS_COND_AXIS_UNIT-4 ""
*MEAS_COND_AXIS_UNIT-5 ""
*MEAS_COND_AXIS_UNIT-6 ""
*MEAS_COND_AXIS_UNIT-7 ""
*MEAS_COND_AXIS_UNIT-8 ""
*MEAS_COND_AXIS_UNIT-9 "div"
*MEAS_COND_CORRECTION_SLIT_COUNTERMONO "None"
*MEAS_COND_CORRECTION_SLIT_DS "1.250deg"
*MEAS_COND_CORRECTION_SLIT_FILTER "None"
*MEAS_COND_CORRECTION_SLIT_IHS "10.0mm"
*MEAS_COND_CORRECTION_SLIT_RS "13.0mm"
*MEAS_COND_CORRECTION_SLIT_SOLLER_INC "2.5deg"
*MEAS_COND_CORRECTION_SLIT_SOLLER_REC "2.5deg"
*MEAS_COND_CORRECTION_SLIT_SS "8.0mm"
*MEAS_COND_COUNTER_CNTLOSS_CORR "0.0000000000"
*MEAS_COND_COUNTER_PHABASE "36.0000000000"
*MEAS_COND_COUNTER_PHAWINDOW "16.0000000000"
*MEAS_COND_COUNTER_PHA_UNIT "div"
*MEAS_COND_COUNTER_TAUDIFF "0.2500000000"
*MEAS_COND_COUNTER_TAUINT "0.7500000000"
*MEAS_COND_IRRADIATION_MODE "OFF"
*MEAS_COND_IRRADIATION_WIDTH ""
*MEAS_COND_OPT_ATTR " "
*MEAS_COND_OPT_NAME ""
*MEAS_COND_UNSYMMETRIC_MODE "OFF"
*MEAS_COND_XG_CURRENT "15.0000000000"
*MEAS_COND_XG_VOLTAGE "40.0000000000"
*MEAS_COND_XG_WAVE_TYPE "Ka"
*MEAS_DATA_COUNT "2751.0000000000"
*MEAS_SCAN_AXIS_X "2θ/θ"
*MEAS_SCAN_AXIS_X_INTERNAL "TwoThetaTheta"
*MEAS_SCAN_END_TIME "08/31/20 15:01:05"
*MEAS_SCAN_MODE "CONTINUOUS"
*MEAS_SCAN_MONITOR "0"
*MEAS_SCAN_RESOLUTION_X "0.0025"
*MEAS_SCAN_SPEED "5.000000"
*MEAS_SCAN_SPEED_UNIT "deg/min"
*MEAS_SCAN_SPEED_USER "5.000000"
*MEAS_SCAN_START "5.0000000000"
*MEAS_SCAN_START_TIME "08/31/20 14:48:47"
*MEAS_SCAN_STEP "0.0200000000"
*MEAS_SCAN_STOP "60.0000000000"
*MEAS_SCAN_UNIT_X "deg"
*MEAS_SCAN_UNIT_Y "counts"
*SLIT_SYSTEM "0"
*RAS_HEADER_END
*RAS_INT_START
5.0000 448.0000 1.0000
5.0200 469.0000 1.0000
5.0400 482.0000 1.0000
5.0600 450.0000 1.0000
5.0800 507.0000 1.0000
5.1000 476.0000 1.0000
5.1200 507.0000 1.0000
5.1400 505.0000 1.0000
5.1600 507.0000 1.0000
5.1800 501.0000 1.0000
5.2000 481.0000 1.0000
5.2200 501.0000 1.0000
5.2400 563.0000 1.0000
5.2600 543.0000 1.0000
5.2800 530.0000 1.0000
5.3000 451.0000 1.0000
5.3200 463.0000 1.0000
5.3400 490.0000 1.0000
5.3600 449.0000 1.0000
5.3800 476.0000 1.0000
5.4000 495.0000 1.0000
5.4200 493.0000 1.0000
5.4400 463.0000 1.0000
5.4600 479.0000 1.0000
5.4800 504.0000 1.0000
5.5000 509.0000 1.0000
5.5200 450.0000 1.0000
5.5400 442.0000 1.0000
5.5600 484.0000 1.0000
5.5800 532.0000 1.0000
5.6000 487.0000 1.0000
5.6200 472.0000 1.0000
5.6400 487.0000 1.0000
5.6600 515.0000 1.0000
5.6800 483.0000 1.0000
5.7000 491.0000 1.0000
5.7200 552.0000 1.0000
5.7400 524.0000 1.0000
5.7600 464.0000 1.0000
5.7800 536.0000 1.0000
5.8000 512.0000 1.0000
5.8200 552.0000 1.0000
5.8400 595.0000 1.0000
5.8600 516.0000 1.0000
5.8800 511.0000 1.0000
5.9000 500.0000 1.0000
5.9200 473.0000 1.0000
5.9400 509.0000 1.0000
5.9600 545.0000 1.0000
5.9800 500.0000 1.0000
6.0000 486.0000 1.0000
6.0200 524.0000 1.0000
6.0400 560.0000 1.0000
6.0600 487.0000 1.0000
6.0800 491.0000 1.0000
6.1000 527.0000 1.0000
6.1200 513.0000 1.0000
6.1400 490.0000 1.0000
6.1600 440.0000 1.0000
6.1800 490.0000 1.0000
6.2000 494.0000 1.0000
6.2200 513.0000 1.0000
6.2400 464.0000 1.0000
6.2600 531.0000 1.0000
6.2800 461.0000 1.0000
6.3000 427.0000 1.0000
6.3200 511.0000 1.0000
6.3400 524.0000 1.0000
6.3600 532.0000 1.0000
6.3800 498.0000 1.0000
6.4000 490.0000 1.0000
6.4200 460.0000 1.0000
6.4400 470.0000 1.0000
6.4600 463.0000 1.0000
6.4800 496.0000 1.0000
6.5000 483.0000 1.0000
6.5200 510.0000 1.0000
6.5400 491.0000 1.0000
6.5600 527.0000 1.0000
6.5800 531.0000 1.0000
6.6000 495.0000 1.0000
6.6200 494.0000 1.0000
6.6400 504.0000 1.0000
6.6600 552.0000 1.0000
6.6800 500.0000 1.0000
6.7000 463.0000 1.0000
6.7200 484.0000 1.0000
6.7400 507.0000 1.0000
6.7600 481.0000 1.0000
6.7800 474.0000 1.0000
6.8000 519.0000 1.0000
6.8200 487.0000 1.0000
6.8400 472.0000 1.0000
6.8600 466.0000 1.0000
6.8800 527.0000 1.0000
6.9000 512.0000 1.0000
6.9200 467.0000 1.0000
6.9400 463.0000 1.0000
6.9600 494.0000 1.0000
6.9800 471.0000 1.0000
7.0000 504.0000 1.0000
7.0200 495.0000 1.0000
7.0400 507.0000 1.0000
7.0600 513.0000 1.0000
7.0800 493.0000 1.0000
7.1000 481.0000 1.0000
7.1200 504.0000 1.0000
7.1400 515.0000 1.0000
7.1600 480.0000 1.0000
7.1800 494.0000 1.0000
7.2000 532.0000 1.0000
7.2200 517.0000 1.0000
7.2400 537.0000 1.0000
7.2600 522.0000 1.0000
7.2800 464.0000 1.0000
7.3000 489.0000 1.0000
7.3200 485.0000 1.0000
7.3400 491.0000 1.0000
7.3600 558.0000 1.0000
7.3800 514.0000 1.0000
7.4000 505.0000 1.0000
7.4200 526.0000 1.0000
7.4400 492.0000 1.0000
7.4600 541.0000 1.0000
7.4800 489.0000 1.0000
7.5000 503.0000 1.0000
7.5200 489.0000 1.0000
7.5400 473.0000 1.0000
7.5600 432.0000 1.0000
7.5800 441.0000 1.0000
7.6000 460.0000 1.0000
7.6200 481.0000 1.0000
7.6400 455.0000 1.0000
7.6600 471.0000 1.0000
7.6800 528.0000 1.0000
7.7000 497.0000 1.0000
7.7200 462.0000 1.0000
7.7400 504.0000 1.0000
7.7600 457.0000 1.0000
7.7800 504.0000 1.0000
7.8000 501.0000 1.0000
7.8200 549.0000 1.0000
7.8400 491.0000 1.0000
7.8600 478.0000 1.0000
7.8800 484.0000 1.0000
7.9000 492.0000 1.0000
7.9200 495.0000 1.0000
7.9400 504.0000 1.0000
7.9600 552.0000 1.0000
7.9800 515.0000 1.0000
8.0000 509.0000 1.0000
8.0200 517.0000 1.0000
8.0400 500.0000 1.0000
8.0600 480.0000 1.0000
8.0800 467.0000 1.0000
8.1000 468.0000 1.0000
8.1200 472.0000 1.0000
8.1400 544.0000 1.0000
8.1600 527.0000 1.0000
8.1800 521.0000 1.0000
8.2000 540.0000 1.0000
8.2200 527.0000 1.0000
8.2400 546.0000 1.0000
8.2600 538.0000 1.0000
8.2800 478.0000 1.0000
8.3000 475.0000 1.0000
8.3200 503.0000 1.0000
8.3400 506.0000 1.0000
8.3600 541.0000 1.0000
8.3800 531.0000 1.0000
8.4000 512.0000 1.0000
8.4200 533.0000 1.0000
8.4400 478.0000 1.0000
8.4600 499.0000 1.0000
8.4800 502.0000 1.0000
8.5000 484.0000 1.0000
8.5200 500.0000 1.0000
8.5400 455.0000 1.0000
8.5600 467.0000 1.0000
8.5800 499.0000 1.0000
8.6000 508.0000 1.0000
8.6200 525.0000 1.0000
8.6400 564.0000 1.0000
8.6600 518.0000 1.0000
8.6800 491.0000 1.0000
8.7000 513.0000 1.0000
8.7200 508.0000 1.0000
8.7400 541.0000 1.0000
8.7600 525.0000 1.0000
8.7800 547.0000 1.0000
8.8000 539.0000 1.0000
8.8200 515.0000 1.0000
8.8400 495.0000 1.0000
8.8600 534.0000 1.0000
8.8800 492.0000 1.0000
8.9000 508.0000 1.0000
8.9200 526.0000 1.0000
8.9400 533.0000 1.0000
8.9600 538.0000 1.0000
8.9800 533.0000 1.0000
9.0000 540.0000 1.0000
9.0200 503.0000 1.0000
9.0400 502.0000 1.0000
9.0600 516.0000 1.0000
9.0800 529.0000 1.0000
9.1000 540.0000 1.0000
9.1200 498.0000 1.0000
9.1400 468.0000 1.0000
9.1600 477.0000 1.0000
9.1800 482.0000 1.0000
9.2000 485.0000 1.0000
9.2200 513.0000 1.0000
9.2400 566.0000 1.0000
9.2600 559.0000 1.0000
9.2800 520.0000 1.0000
9.3000 512.0000 1.0000
9.3200 549.0000 1.0000
9.3400 506.0000 1.0000
9.3600 503.0000 1.0000
9.3800 516.0000 1.0000
9.4000 537.0000 1.0000
9.4200 561.0000 1.0000
9.4400 533.0000 1.0000
9.4600 482.0000 1.0000
9.4800 536.0000 1.0000
9.5000 565.0000 1.0000
9.5200 550.0000 1.0000
9.5400 541.0000 1.0000
9.5600 561.0000 1.0000
9.5800 536.0000 1.0000
9.6000 518.0000 1.0000
9.6200 505.0000 1.0000
9.6400 506.0000 1.0000
9.6600 549.0000 1.0000
9.6800 564.0000 1.0000
9.7000 572.0000 1.0000
9.7200 556.0000 1.0000
9.7400 562.0000 1.0000
9.7600 553.0000 1.0000
9.7800 508.0000 1.0000
9.8000 568.0000 1.0000
9.8200 600.0000 1.0000
9.8400 576.0000 1.0000
9.8600 571.0000 1.0000
9.8800 552.0000 1.0000
9.9000 612.0000 1.0000
9.9200 563.0000 1.0000
9.9400 562.0000 1.0000
9.9600 576.0000 1.0000
9.9800 594.0000 1.0000
10.0000 593.0000 1.0000
10.0200 548.0000 1.0000
10.0400 555.0000 1.0000
10.0600 593.0000 1.0000
10.0800 558.0000 1.0000
10.1000 581.0000 1.0000
10.1200 565.0000 1.0000
10.1400 614.0000 1.0000
10.1600 611.0000 1.0000
10.1800 580.0000 1.0000
10.2000 592.0000 1.0000
10.2200 585.0000 1.0000
10.2400 588.0000 1.0000
10.2600 619.0000 1.0000
10.2800 629.0000 1.0000
10.3000 604.0000 1.0000
10.3200 607.0000 1.0000
10.3400 606.0000 1.0000
10.3600 586.0000 1.0000
10.3800 610.0000 1.0000
10.4000 631.0000 1.0000
10.4200 648.0000 1.0000
10.4400 627.0000 1.0000
10.4600 584.0000 1.0000
10.4800 598.0000 1.0000
10.5000 623.0000 1.0000
10.5200 627.0000 1.0000
10.5400 637.0000 1.0000
10.5600 607.0000 1.0000
10.5800 613.0000 1.0000
10.6000 605.0000 1.0000
10.6200 621.0000 1.0000
10.6400 657.0000 1.0000
10.6600 647.0000 1.0000
10.6800 639.0000 1.0000
10.7000 639.0000 1.0000
10.7200 664.0000 1.0000
10.7400 637.0000 1.0000
10.7600 634.0000 1.0000
10.7800 676.0000 1.0000
10.8000 672.0000 1.0000
10.8200 695.0000 1.0000
10.8400 664.0000 1.0000
10.8600 652.0000 1.0000
10.8800 677.0000 1.0000
10.9000 702.0000 1.0000
10.9200 676.0000 1.0000
10.9400 675.0000 1.0000
10.9600 681.0000 1.0000
10.9800 719.0000 1.0000
11.0000 702.0000 1.0000
11.0200 691.0000 1.0000
11.0400 728.0000 1.0000
11.0600 695.0000 1.0000
11.0800 692.0000 1.0000
11.1000 707.0000 1.0000
11.1200 726.0000 1.0000
11.1400 718.0000 1.0000
11.1600 722.0000 1.0000
11.1800 717.0000 1.0000
11.2000 696.0000 1.0000
11.2200 703.0000 1.0000
11.2400 735.0000 1.0000
11.2600 736.0000 1.0000
11.2800 772.0000 1.0000
11.3000 753.0000 1.0000
11.3200 745.0000 1.0000
11.3400 742.0000 1.0000
11.3600 751.0000 1.0000
11.3800 753.0000 1.0000
11.4000 755.0000 1.0000
11.4200 737.0000 1.0000
11.4400 770.0000 1.0000
11.4600 760.0000 1.0000
11.4800 777.0000 1.0000
11.5000 774.0000 1.0000
11.5200 745.0000 1.0000
11.5400 765.0000 1.0000
11.5600 783.0000 1.0000
11.5800 773.0000 1.0000
11.6000 779.0000 1.0000
11.6200 769.0000 1.0000
11.6400 781.0000 1.0000
11.6600 759.0000 1.0000
11.6800 746.0000 1.0000
11.7000 762.0000 1.0000
11.7200 796.0000 1.0000
11.7400 806.0000 1.0000
11.7600 803.0000 1.0000
11.7800 808.0000 1.0000
11.8000 824.0000 1.0000
11.8200 829.0000 1.0000
11.8400 807.0000 1.0000
11.8600 793.0000 1.0000
11.8800 809.0000 1.0000
11.9000 830.0000 1.0000
11.9200 828.0000 1.0000
11.9400 819.0000 1.0000
11.9600 829.0000 1.0000
11.9800 774.0000 1.0000
12.0000 795.0000 1.0000
12.0200 801.0000 1.0000
12.0400 789.0000 1.0000
12.0600 792.0000 1.0000
12.0800 810.0000 1.0000
12.1000 771.0000 1.0000
12.1200 792.0000 1.0000
12.1400 843.0000 1.0000
12.1600 826.0000 1.0000
12.1800 812.0000 1.0000
12.2000 822.0000 1.0000
12.2200 814.0000 1.0000
12.2400 776.0000 1.0000
12.2600 802.0000 1.0000
12.2800 818.0000 1.0000
12.3000 780.0000 1.0000
12.3200 817.0000 1.0000
12.3400 784.0000 1.0000
12.3600 782.0000 1.0000
12.3800 804.0000 1.0000
12.4000 810.0000 1.0000
12.4200 792.0000 1.0000
12.4400 807.0000 1.0000
12.4600 841.0000 1.0000
12.4800 820.0000 1.0000
12.5000 810.0000 1.0000
12.5200 808.0000 1.0000
12.5400 767.0000 1.0000
12.5600 751.0000 1.0000
12.5800 754.0000 1.0000
12.6000 779.0000 1.0000
12.6200 789.0000 1.0000
12.6400 799.0000 1.0000
12.6600 762.0000 1.0000
12.6800 736.0000 1.0000
12.7000 759.0000 1.0000
12.7200 754.0000 1.0000
12.7400 759.0000 1.0000
12.7600 770.0000 1.0000
12.7800 747.0000 1.0000
12.8000 723.0000 1.0000
12.8200 714.0000 1.0000
12.8400 736.0000 1.0000
12.8600 765.0000 1.0000
12.8800 763.0000 1.0000
12.9000 785.0000 1.0000
12.9200 770.0000 1.0000
12.9400 752.0000 1.0000
12.9600 742.0000 1.0000
12.9800 721.0000 1.0000
13.0000 740.0000 1.0000
13.0200 750.0000 1.0000
13.0400 745.0000 1.0000
13.0600 712.0000 1.0000
13.0800 682.0000 1.0000
13.1000 676.0000 1.0000
13.1200 682.0000 1.0000
13.1400 701.0000 1.0000
13.1600 711.0000 1.0000
13.1800 693.0000 1.0000
13.2000 682.0000 1.0000
13.2200 657.0000 1.0000
13.2400 678.0000 1.0000
13.2600 697.0000 1.0000
13.2800 696.0000 1.0000
13.3000 656.0000 1.0000
13.3200 655.0000 1.0000
13.3400 715.0000 1.0000
13.3600 728.0000 1.0000
13.3800 684.0000 1.0000
13.4000 672.0000 1.0000
13.4200 694.0000 1.0000
13.4400 667.0000 1.0000
13.4600 637.0000 1.0000
13.4800 648.0000 1.0000
13.5000 689.0000 1.0000
13.5200 677.0000 1.0000
13.5400 650.0000 1.0000
13.5600 673.0000 1.0000
13.5800 655.0000 1.0000
13.6000 633.0000 1.0000
13.6200 637.0000 1.0000
13.6400 643.0000 1.0000
13.6600 627.0000 1.0000
13.6800 624.0000 1.0000
13.7000 642.0000 1.0000
13.7200 626.0000 1.0000
13.7400 624.0000 1.0000
13.7600 650.0000 1.0000
13.7800 657.0000 1.0000
13.8000 663.0000 1.0000
13.8200 670.0000 1.0000
13.8400 673.0000 1.0000
13.8600 672.0000 1.0000
13.8800 649.0000 1.0000
13.9000 658.0000 1.0000
13.9200 643.0000 1.0000
13.9400 623.0000 1.0000
13.9600 637.0000 1.0000
13.9800 631.0000 1.0000
14.0000 618.0000 1.0000
14.0200 605.0000 1.0000
14.0400 604.0000 1.0000
14.0600 620.0000 1.0000
14.0800 611.0000 1.0000
14.1000 628.0000 1.0000
14.1200 616.0000 1.0000
14.1400 585.0000 1.0000
14.1600 584.0000 1.0000
14.1800 606.0000 1.0000
14.2000 633.0000 1.0000
14.2200 620.0000 1.0000
14.2400 601.0000 1.0000
14.2600 587.0000 1.0000
14.2800 615.0000 1.0000
14.3000 623.0000 1.0000
14.3200 606.0000 1.0000
14.3400 624.0000 1.0000
14.3600 643.0000 1.0000
14.3800 640.0000 1.0000
14.4000 617.0000 1.0000
14.4200 607.0000 1.0000
