*RAS_DATA_START
*RAS_HEADER_START
*CORR_POS_DB_NAME "Correct_20190620"
*CORR_POS_GONIO_RADIUS ""
*CORR_POS_NODE_INDEX01 ""
*CORR_POS_NODE_INDEX02 ""
*CORR_POS_NODE_INDEX03 ""
*CORR_POS_NODE_INDEX04 ""
*CORR_POS_NODE_INDEX05 ""
*CORR_POS_NODE_INDEX06 ""
*CORR_POS_NODE_INDEX07 ""
*CORR_POS_NODE_INDEX08 ""
*CORR_POS_NODE_INDEX09 ""
*CORR_POS_NODE_INDEX10 ""
*CORR_POS_NODE_INDEX11 ""
*CORR_POS_NODE_LABEL01 "Si(111)"
*CORR_POS_NODE_LABEL02 "Si(220)"
*CORR_POS_NODE_LABEL03 "Si(311)"
*CORR_POS_NODE_LABEL04 "Si(400)"
*CORR_POS_NODE_LABEL05 "Si(331)"
*CORR_POS_NODE_LABEL06 "Si(422)"
*CORR_POS_NODE_LABEL07 "Si(511)"
*CORR_POS_NODE_LABEL08 "Si(440)"
*CORR_POS_NODE_LABEL09 "Si(531)"
*CORR_POS_NODE_LABEL10 "Si(620)"
*CORR_POS_NODE_LABEL11 "Si(533)"
*CORR_POS_NODE_POS_CALC01 "28.4005"
*CORR_POS_NODE_POS_CALC02 "47.2634"
*CORR_POS_NODE_POS_CALC03 "56.0825"
*CORR_POS_NODE_POS_CALC04 "69.0892"
*CORR_POS_NODE_POS_CALC05 "76.335"
*CORR_POS_NODE_POS_CALC06 "87.989"
*CORR_POS_NODE_POS_CALC07 "94.9117"
*CORR_POS_NODE_POS_CALC08 "106.669"
*CORR_POS_NODE_POS_CALC09 "114.054"
*CORR_POS_NODE_POS_CALC10 "127.509"
*CORR_POS_NODE_POS_CALC11 "136.859"
*CORR_POS_NODE_POS_MEAS01 "28.3879"
*CORR_POS_NODE_POS_MEAS02 "47.243"
*CORR_POS_NODE_POS_MEAS03 "56.0511"
*CORR_POS_NODE_POS_MEAS04 "69.0708"
*CORR_POS_NODE_POS_MEAS05 "76.3178"
*CORR_POS_NODE_POS_MEAS06 "87.9728"
*CORR_POS_NODE_POS_MEAS07 "94.8964"
*CORR_POS_NODE_POS_MEAS08 "106.655"
*CORR_POS_NODE_POS_MEAS09 "114.033"
*CORR_POS_NODE_POS_MEAS10 "127.497"
*CORR_POS_NODE_POS_MEAS11 "136.844"
*CORR_POS_OPT_ATTR "集中法"
*CORR_POS_PARAM_MU ""
*CORR_POS_PARAM_PL ""
*CORR_POS_SEMODEL_TYPE "0"
*CORR_POS_STANDARD_TYPE ""
*CORR_POS_VALUE_ANALYZER "None"
*CORR_POS_VALUE_CMONO "None_None"
*CORR_POS_VALUE_IMONO "None"
*CORR_POS_VALUE_IS "1.250deg"
*CORR_POS_VALUE_ISL "10.0mm"
*CORR_POS_VALUE_ISOLLER "2.5deg"
*CORR_POS_VALUE_RS1 "13.0mm"
*CORR_POS_VALUE_RS2 "13.0mm"
*CORR_POS_VALUE_RSOLLER "2.5deg"
*CORR_POS_XG_FOCUS_L ""
*CORR_POS_XG_WAVE_TYPE ""
*CORR_POS_XG_WAVE_VALUE ""
*DISP_FMT_X "%.2f"
*DISP_FMT_Y "%.0f"
*DISP_FULLSCALE "2345.0000000000"
*DISP_LINE_COLOR "255.0000000000"
*DISP_LINE_STYLE "0.0000000000"
*DISP_LINE_WIDTH "0.2500000000"
*DISP_NOTE "測定データ-3"
*DISP_OFFSET_Y "0.0000000000"
*DISP_PEAKSEARCH_UNIT_Y "cps"
*DISP_RANGE_BOTTOM "0.0000000000"
*DISP_RANGE_LEFT "5.0000000000"
*DISP_RANGE_LOGCUTOFF "0.0100000000"
*DISP_RANGE_RIGHT "60.0000000000"
*DISP_RANGE_TOP "2345.0000000000"
*DISP_SCALE_MODE_Y "0.0000000000"
*DISP_TAB_NAME "2θ/θ"
*DISP_TITLE_Y "強度"
*DISP_UNIT_Y "cps"
*DISP_WINDOW_NAME "MSG_MACROENGINE"
*FILE_COMMENT " "
*FILE_MD5 ""
*FILE_MEMO " "
*FILE_OPERATOR "administrator"
*FILE_PART_ID "MEAS_PBEA_00223"
*FILE_SAMPLE " "
*FILE_TYPE "RAS_RAW"
*FILE_USERGROUP "システムマネージャ"
*FILE_VERSION "1.0000000000"
*HW_ATTACHMENT_ID "ATT1025"
*HW_ATTACHMENT_NAME "標準試料台|Standard Sample Stage"
*HW_COUNTER_ID-0 "CUT0025"
*HW_COUNTER_ID-1 "CUT0020"
*HW_COUNTER_ID-2 "CUT0020"
*HW_COUNTER_ID-3 "CMC0021"
*HW_COUNTER_NAME-0 "D/teX Ultra2|D/teX Ultra2"
*HW_COUNTER_NAME-1 "None|None"
*HW_COUNTER_NAME-2 "None|None"
*HW_COUNTER_NAME-3 "検出器モノクロメータ|Detector monochromator"
*HW_COUNTER_SELECT_NAME "D/teX Ultra2|D/teX Ultra2"
*HW_GONIOMETER_ID "GON0070"
*HW_GONIOMETER_NAME "MiniFlex 300/600|MiniFlex 300/600"
*HW_GONIOMETER_RADIUS-0 "79.0"
*HW_GONIOMETER_RADIUS-1 "91.5"
*HW_GONIOMETER_RADIUS-2 "150.0"
*HW_GONIOMETER_RADIUS-3 "0"
*HW_GONIOMETER_RADIUS-4 "92.7"
*HW_GONIOMETER_RADIUS-5 "139.3"
*HW_GONIOMETER_RADIUS-6 "46.6"
*HW_GONIOMETER_RADIUS-7 "150.0"
*HW_I_OPT_ID-0 "ISL0021"
*HW_I_OPT_ID-1 "ISO0021"
*HW_I_OPT_NAME-0 "発散スリット|Divergence slit"
*HW_I_OPT_NAME-1 "入射平行スリット|Incident parallel slit"
*HW_R_ATTENUATER_AUTOMODE "0"
*HW_R_OPT_ID-0 "RSS0021"
*HW_R_OPT_ID-1 "RSO0021"
*HW_R_OPT_ID-2 "RRS0021"
*HW_R_OPT_NAME-0 "散乱スリット|Scattering slit"
*HW_R_OPT_NAME-1 "受光平行スリット|Receiving soller slit"
*HW_R_OPT_NAME-2 "受光スリット|Receiving slit"
*HW_SAMPLE_HOLDER_ID "SMP0000"
*HW_SAMPLE_HOLDER_NAME "無し|None"
*HW_XG_CURRENT_MAX "15"
*HW_XG_CURRENT_MIN "2"
*HW_XG_CURRENT_RESOLUTION "1"
*HW_XG_CURRENT_UNIT "mA"
*HW_XG_FOCUS "1mm x 10mm"
*HW_XG_FOCUS_TYPE "Normal"
*HW_XG_ID "1060"
*HW_XG_NAME "300W/600W 封入管-B|300W/600W Sealed tube-B"
*HW_XG_TARGET_ATOMIC_NUMBER "29.0000000000"
*HW_XG_TARGET_NAME "Cu"
*HW_XG_TYPE "Hermetic"
*HW_XG_VOLTAGE_MAX "40"
*HW_XG_VOLTAGE_MIN "20"
*HW_XG_VOLTAGE_RESOLUTION "1"
*HW_XG_VOLTAGE_UNIT "kV"
*HW_XG_WATT_MAX "1"
*HW_XG_WATT_UNIT "kW"
*HW_XG_WAVE_LENGTH_ALPHA1 "1.540593"
*HW_XG_WAVE_LENGTH_ALPHA2 "1.544414"
*HW_XG_WAVE_LENGTH_BETA "1.392250"
*MEAS_COND_AXIS_NAME-0 "2θ/θ"
*MEAS_COND_AXIS_NAME-1 "Soller(inc.)"
*MEAS_COND_AXIS_NAME-2 "IHS"
*MEAS_COND_AXIS_NAME-3 "DS"
*MEAS_COND_AXIS_NAME-4 "SS"
*MEAS_COND_AXIS_NAME-5 "Soller(rec.)"
*MEAS_COND_AXIS_NAME-6 "RS"
*MEAS_COND_AXIS_NAME-7 "フィルター"
*MEAS_COND_AXIS_NAME-8 "モノクロメータ"
*MEAS_COND_AXIS_NAME-9 "PHA"
*MEAS_COND_AXIS_NAME_INTERNAL-0 "TwoThetaTheta"
*MEAS_COND_AXIS_NAME_INTERNAL-1 "IncidentSollerSlit"
*MEAS_COND_AXIS_NAME_INTERNAL-2 "IncidentAxdSlit"
*MEAS_COND_AXIS_NAME_INTERNAL-3 "IncidentSlitBox"
*MEAS_COND_AXIS_NAME_INTERNAL-4 "ReceivingSlitBox1"
*MEAS_COND_AXIS_NAME_INTERNAL-5 "ReceivingSollerSlit"
*MEAS_COND_AXIS_NAME_INTERNAL-6 "ReceivingSlitBox2"
*MEAS_COND_AXIS_NAME_INTERNAL-7 "Filter"
*MEAS_COND_AXIS_NAME_INTERNAL-8 "CounterMonochromator"
*MEAS_COND_AXIS_NAME_INTERNAL-9 "PHA"
*MEAS_COND_AXIS_NAME_MAGICNO-0 "268632064.0000000000"
*MEAS_COND_AXIS_NAME_MAGICNO-1 "20971521.0000000000"
*MEAS_COND_AXIS_NAME_MAGICNO-2 "22020097.0000000000"
*MEAS_COND_AXIS_NAME_MAGICNO-3 "22020097.0000000000"
*MEAS_COND_AXIS_NAME_MAGICNO-4 "23068673.0000000000"
*MEAS_COND_AXIS_NAME_MAGICNO-5 "20971521.0000000000"
*MEAS_COND_AXIS_NAME_MAGICNO-6 "23068673.0000000000"
*MEAS_COND_AXIS_NAME_MAGICNO-7 "20971521.0000000000"
*MEAS_COND_AXIS_NAME_MAGICNO-8 "20971521.0000000000"
*MEAS_COND_AXIS_NAME_MAGICNO-9 "0.0000000000"
*MEAS_COND_AXIS_OFFSET-0 "0.0000000000"
*MEAS_COND_AXIS_OFFSET-1 "-"
*MEAS_COND_AXIS_OFFSET-2 "-"
*MEAS_COND_AXIS_OFFSET-3 "-"
*MEAS_COND_AXIS_OFFSET-4 "-"
*MEAS_COND_AXIS_OFFSET-5 "-"
*MEAS_COND_AXIS_OFFSET-6 "-"
*MEAS_COND_AXIS_OFFSET-7 "-"
*MEAS_COND_AXIS_OFFSET-8 "-"
*MEAS_COND_AXIS_OFFSET-9 "-"
*MEAS_COND_AXIS_POSITION-0 "12.0000000000"
*MEAS_COND_AXIS_POSITION-1 "2.5deg"
*MEAS_COND_AXIS_POSITION-2 "10.0mm"
*MEAS_COND_AXIS_POSITION-3 "1.250deg"
*MEAS_COND_AXIS_POSITION-4 "8.0mm"
*MEAS_COND_AXIS_POSITION-5 "2.5deg"
*MEAS_COND_AXIS_POSITION-6 "13.0mm(Open)"
*MEAS_COND_AXIS_POSITION-7 "K-beta(x1.5)"
*MEAS_COND_AXIS_POSITION-8 "None"
*MEAS_COND_AXIS_POSITION-9 "36.0000000000"
*MEAS_COND_AXIS_UNIT-0 "deg"
*MEAS_COND_AXIS_UNIT-1 ""
*MEAS_COND_AXIS_UNIT-2 ""
*MEAS_COND_AXIS_UNIT-3 ""
*MEAS_COND_AXIS_UNIT-4 ""
*MEAS_COND_AXIS_UNIT-5 ""
*MEAS_COND_AXIS_UNIT-6 ""
*MEAS_COND_AXIS_UNIT-7 ""
*MEAS_COND_AXIS_UNIT-8 ""
*MEAS_COND_AXIS_UNIT-9 "div"
*MEAS_COND_CORRECTION_SLIT_COUNTERMONO "None"
*MEAS_COND_CORRECTION_SLIT_DS "1.250deg"
*MEAS_COND_CORRECTION_SLIT_FILTER "None"
*MEAS_COND_CORRECTION_SLIT_IHS "10.0mm"
*MEAS_COND_CORRECTION_SLIT_RS "13.0mm"
*MEAS_COND_CORRECTION_SLIT_SOLLER_INC "2.5deg"
*MEAS_COND_CORRECTION_SLIT_SOLLER_REC "2.5deg"
*MEAS_COND_CORRECTION_SLIT_SS "8.0mm"
*MEAS_COND_COUNTER_CNTLOSS_CORR "0.0000000000"
*MEAS_COND_COUNTER_PHABASE "36.0000000000"
*MEAS_COND_COUNTER_PHAWINDOW "16.0000000000"
*MEAS_COND_COUNTER_PHA_UNIT "div"
*MEAS_COND_COUNTER_TAUDIFF "0.2500000000"
*MEAS_COND_COUNTER_TAUINT "0.7500000000"
*MEAS_COND_IRRADIATION_MODE "OFF"
*MEAS_COND_IRRADIATION_WIDTH ""
*MEAS_COND_OPT_ATTR " "
*MEAS_COND_OPT_NAME ""
*MEAS_COND_UNSYMMETRIC_MODE "OFF"
*MEAS_COND_XG_CURRENT "15.0000000000"
*MEAS_COND_XG_VOLTAGE "40.0000000000"
*MEAS_COND_XG_WAVE_TYPE "Ka"
*MEAS_DATA_COUNT "2751.0000000000"
*MEAS_SCAN_AXIS_X "2θ/θ"
*MEAS_SCAN_AXIS_X_INTERNAL "TwoThetaTheta"
*MEAS_SCAN_END_TIME "08/31/20 14:20:04"
*MEAS_SCAN_MODE "CONTINUOUS"
*MEAS_SCAN_MONITOR "0"
*MEAS_SCAN_RESOLUTION_X "0.0025"
*MEAS_SCAN_SPEED "5.000000"
*MEAS_SCAN_SPEED_UNIT "deg/min"
*MEAS_SCAN_SPEED_USER "5.000000"
*MEAS_SCAN_START "5.0000000000"
*MEAS_SCAN_START_TIME "08/31/20 14:07:46"
*MEAS_SCAN_STEP "0.0200000000"
*MEAS_SCAN_STOP "60.0000000000"
*MEAS_SCAN_UNIT_X "deg"
*MEAS_SCAN_UNIT_Y "counts"
*SLIT_SYSTEM "0"
*RAS_HEADER_END
*RAS_INT_START
5.0000 415.0000 1.0000
5.0200 428.0000 1.0000
5.0400 445.0000 1.0000
5.0600 413.0000 1.0000
5.0800 379.0000 1.0000
5.1000 406.0000 1.0000
5.1200 387.0000 1.0000
5.1400 374.0000 1.0000
5.1600 387.0000 1.0000
5.1800 368.0000 1.0000
5.2000 363.0000 1.0000
5.2200 415.0000 1.0000
5.2400 417.0000 1.0000
5.2600 408.0000 1.0000
5.2800 368.0000 1.0000
5.3000 469.0000 1.0000
5.3200 386.0000 1.0000
5.3400 392.0000 1.0000
5.3600 390.0000 1.0000
5.3800 444.0000 1.0000
5.4000 425.0000 1.0000
5.4200 427.0000 1.0000
5.4400 443.0000 1.0000
5.4600 428.0000 1.0000
5.4800 402.0000 1.0000
5.5000 424.0000 1.0000
5.5200 413.0000 1.0000
5.5400 371.0000 1.0000
5.5600 427.0000 1.0000
5.5800 458.0000 1.0000
5.6000 390.0000 1.0000
5.6200 445.0000 1.0000
5.6400 401.0000 1.0000
5.6600 353.0000 1.0000
5.6800 352.0000 1.0000
5.7000 426.0000 1.0000
5.7200 366.0000 1.0000
5.7400 368.0000 1.0000
5.7600 409.0000 1.0000
5.7800 378.0000 1.0000
5.8000 332.0000 1.0000
5.8200 375.0000 1.0000
5.8400 365.0000 1.0000
5.8600 453.0000 1.0000
5.8800 378.0000 1.0000
5.9000 430.0000 1.0000
5.9200 426.0000 1.0000
5.9400 355.0000 1.0000
5.9600 345.0000 1.0000
5.9800 378.0000 1.0000
6.0000 361.0000 1.0000
6.0200 465.0000 1.0000
6.0400 421.0000 1.0000
6.0600 382.0000 1.0000
6.0800 405.0000 1.0000
6.1000 367.0000 1.0000
6.1200 394.0000 1.0000
6.1400 380.0000 1.0000
6.1600 443.0000 1.0000
6.1800 372.0000 1.0000
6.2000 355.0000 1.0000
6.2200 417.0000 1.0000
6.2400 401.0000 1.0000
6.2600 370.0000 1.0000
6.2800 375.0000 1.0000
6.3000 397.0000 1.0000
6.3200 334.0000 1.0000
6.3400 401.0000 1.0000
6.3600 394.0000 1.0000
6.3800 404.0000 1.0000
6.4000 391.0000 1.0000
6.4200 442.0000 1.0000
6.4400 360.0000 1.0000
6.4600 361.0000 1.0000
6.4800 412.0000 1.0000
6.5000 440.0000 1.0000
6.5200 398.0000 1.0000
6.5400 346.0000 1.0000
6.5600 404.0000 1.0000
6.5800 366.0000 1.0000
6.6000 388.0000 1.0000
6.6200 378.0000 1.0000
6.6400 346.0000 1.0000
6.6600 381.0000 1.0000
6.6800 386.0000 1.0000
6.7000 393.0000 1.0000
6.7200 392.0000 1.0000
6.7400 377.0000 1.0000
6.7600 329.0000 1.0000
6.7800 322.0000 1.0000
6.8000 404.0000 1.0000
6.8200 378.0000 1.0000
6.8400 385.0000 1.0000
6.8600 387.0000 1.0000
6.8800 361.0000 1.0000
6.9000 409.0000 1.0000
6.9200 402.0000 1.0000
6.9400 361.0000 1.0000
6.9600 381.0000 1.0000
6.9800 417.0000 1.0000
7.0000 382.0000 1.0000
7.0200 330.0000 1.0000
7.0400 340.0000 1.0000
7.0600 373.0000 1.0000
7.0800 351.0000 1.0000
7.1000 376.0000 1.0000
7.1200 394.0000 1.0000
7.1400 348.0000 1.0000
7.1600 428.0000 1.0000
7.1800 421.0000 1.0000
7.2000 348.0000 1.0000
7.2200 373.0000 1.0000
7.2400 346.0000 1.0000
7.2600 347.0000 1.0000
7.2800 349.0000 1.0000
7.3000 394.0000 1.0000
7.3200 367.0000 1.0000
7.3400 354.0000 1.0000
7.3600 343.0000 1.0000
7.3800 397.0000 1.0000
7.4000 323.0000 1.0000
7.4200 360.0000 1.0000
7.4400 367.0000 1.0000
7.4600 353.0000 1.0000
7.4800 422.0000 1.0000
7.5000 364.0000 1.0000
7.5200 368.0000 1.0000
7.5400 354.0000 1.0000
7.5600 314.0000 1.0000
7.5800 318.0000 1.0000
7.6000 359.0000 1.0000
7.6200 392.0000 1.0000
7.6400 374.0000 1.0000
7.6600 349.0000 1.0000
7.6800 360.0000 1.0000
7.7000 325.0000 1.0000
7.7200 312.0000 1.0000
7.7400 350.0000 1.0000
7.7600 349.0000 1.0000
7.7800 358.0000 1.0000
7.8000 388.0000 1.0000
7.8200 339.0000 1.0000
7.8400 353.0000 1.0000
7.8600 364.0000 1.0000
7.8800 349.0000 1.0000
7.9000 324.0000 1.0000
7.9200 314.0000 1.0000
7.9400 339.0000 1.0000
7.9600 338.0000 1.0000
7.9800 328.0000 1.0000
8.0000 376.0000 1.0000
8.0200 356.0000 1.0000
8.0400 337.0000 1.0000
8.0600 345.0000 1.0000
8.0800 354.0000 1.0000
8.1000 348.0000 1.0000
8.1200 359.0000 1.0000
8.1400 376.0000 1.0000
8.1600 334.0000 1.0000
8.1800 315.0000 1.0000
8.2000 337.0000 1.0000
8.2200 323.0000 1.0000
8.2400 297.0000 1.0000
8.2600 326.0000 1.0000
8.2800 318.0000 1.0000
8.3000 331.0000 1.0000
8.3200 330.0000 1.0000
8.3400 352.0000 1.0000
8.3600 329.0000 1.0000
8.3800 379.0000 1.0000
8.4000 358.0000 1.0000
8.4200 346.0000 1.0000
8.4400 356.0000 1.0000
8.4600 329.0000 1.0000
8.4800 339.0000 1.0000
8.5000 314.0000 1.0000
8.5200 318.0000 1.0000
8.5400 315.0000 1.0000
8.5600 341.0000 1.0000
8.5800 348.0000 1.0000
8.6000 345.0000 1.0000
8.6200 332.0000 1.0000
8.6400 314.0000 1.0000
8.6600 334.0000 1.0000
8.6800 359.0000 1.0000
8.7000 329.0000 1.0000
8.7200 358.0000 1.0000
8.7400 314.0000 1.0000
8.7600 303.0000 1.0000
8.7800 334.0000 1.0000
8.8000 331.0000 1.0000
8.8200 326.0000 1.0000
8.8400 300.0000 1.0000
8.8600 327.0000 1.0000
8.8800 332.0000 1.0000
8.9000 315.0000 1.0000
8.9200 346.0000 1.0000
8.9400 324.0000 1.0000
8.9600 327.0000 1.0000
8.9800 327.0000 1.0000
9.0000 328.0000 1.0000
9.0200 307.0000 1.0000
9.0400 310.0000 1.0000
9.0600 328.0000 1.0000
9.0800 327.0000 1.0000
9.1000 312.0000 1.0000
9.1200 348.0000 1.0000
9.1400 309.0000 1.0000
9.1600 322.0000 1.0000
9.1800 334.0000 1.0000
9.2000 315.0000 1.0000
9.2200 326.0000 1.0000
9.2400 318.0000 1.0000
9.2600 303.0000 1.0000
9.2800 348.0000 1.0000
9.3000 344.0000 1.0000
9.3200 295.0000 1.0000
9.3400 364.0000 1.0000
9.3600 319.0000 1.0000
9.3800 335.0000 1.0000
9.4000 310.0000 1.0000
9.4200 323.0000 1.0000
9.4400 307.0000 1.0000
9.4600 306.0000 1.0000
9.4800 329.0000 1.0000
9.5000 329.0000 1.0000
9.5200 306.0000 1.0000
9.5400 310.0000 1.0000
9.5600 301.0000 1.0000
9.5800 318.0000 1.0000
9.6000 329.0000 1.0000
9.6200 361.0000 1.0000
9.6400 312.0000 1.0000
9.6600 315.0000 1.0000
9.6800 315.0000 1.0000
9.7000 331.0000 1.0000
9.7200 313.0000 1.0000
9.7400 297.0000 1.0000
9.7600 308.0000 1.0000
9.7800 317.0000 1.0000
9.8000 317.0000 1.0000
9.8200 295.0000 1.0000
9.8400 349.0000 1.0000
9.8600 354.0000 1.0000
9.8800 325.0000 1.0000
9.9000 308.0000 1.0000
9.9200 335.0000 1.0000
9.9400 335.0000 1.0000
9.9600 336.0000 1.0000
9.9800 341.0000 1.0000
10.0000 325.0000 1.0000
10.0200 289.0000 1.0000
10.0400 300.0000 1.0000
10.0600 279.0000 1.0000
10.0800 293.0000 1.0000
10.1000 316.0000 1.0000
10.1200 329.0000 1.0000
10.1400 315.0000 1.0000
10.1600 313.0000 1.0000
10.1800 305.0000 1.0000
10.2000 299.0000 1.0000
10.2200 311.0000 1.0000
10.2400 318.0000 1.0000
10.2600 312.0000 1.0000
10.2800 318.0000 1.0000
10.3000 309.0000 1.0000
10.3200 312.0000 1.0000
10.3400 333.0000 1.0000
10.3600 319.0000 1.0000
10.3800 308.0000 1.0000
10.4000 271.0000 1.0000
10.4200 269.0000 1.0000
10.4400 260.0000 1.0000
10.4600 275.0000 1.0000
10.4800 303.0000 1.0000
10.5000 317.0000 1.0000
10.5200 297.0000 1.0000
10.5400 326.0000 1.0000
10.5600 320.0000 1.0000
10.5800 297.0000 1.0000
10.6000 293.0000 1.0000
10.6200 294.0000 1.0000
10.6400 302.0000 1.0000
10.6600 321.0000 1.0000
10.6800 326.0000 1.0000
10.7000 325.0000 1.0000
10.7200 312.0000 1.0000
10.7400 308.0000 1.0000
10.7600 308.0000 1.0000
10.7800 272.0000 1.0000
10.8000 268.0000 1.0000
10.8200 280.0000 1.0000
10.8400 314.0000 1.0000
10.8600 313.0000 1.0000
10.8800 306.0000 1.0000
10.9000 297.0000 1.0000
10.9200 327.0000 1.0000
10.9400 318.0000 1.0000
10.9600 316.0000 1.0000
10.9800 295.0000 1.0000
11.0000 308.0000 1.0000
11.0200 295.0000 1.0000
11.0400 291.0000 1.0000
11.0600 292.0000 1.0000
11.0800 294.0000 1.0000
11.1000 307.0000 1.0000
11.1200 298.0000 1.0000
11.1400 300.0000 1.0000
11.1600 302.0000 1.0000
11.1800 273.0000 1.0000
11.2000 287.0000 1.0000
11.2200 297.0000 1.0000
11.2400 296.0000 1.0000
11.2600 299.0000 1.0000
11.2800 295.0000 1.0000
11.3000 293.0000 1.0000
11.3200 312.0000 1.0000
11.3400 300.0000 1.0000
11.3600 301.0000 1.0000
11.3800 301.0000 1.0000
11.4000 282.0000 1.0000
11.4200 287.0000 1.0000
11.4400 306.0000 1.0000
11.4600 297.0000 1.0000
11.4800 318.0000 1.0000
11.5000 324.0000 1.0000
11.5200 330.0000 1.0000
11.5400 309.0000 1.0000
11.5600 285.0000 1.0000
11.5800 275.0000 1.0000
11.6000 285.0000 1.0000
11.6200 293.0000 1.0000
11.6400 297.0000 1.0000
11.6600 279.0000 1.0000
11.6800 261.0000 1.0000
11.7000 265.0000 1.0000
11.7200 287.0000 1.0000
11.7400 295.0000 1.0000
11.7600 288.0000 1.0000
11.7800 300.0000 1.0000
11.8000 306.0000 1.0000
11.8200 277.0000 1.0000
11.8400 281.0000 1.0000
11.8600 296.0000 1.0000
11.8800 290.0000 1.0000
11.9000 291.0000 1.0000
11.9200 304.0000 1.0000
11.9400 312.0000 1.0000
11.9600 306.0000 1.0000
11.9800 317.0000 1.0000
12.0000 319.0000 1.0000
12.0200 303.0000 1.0000
12.0400 295.0000 1.0000
12.0600 284.0000 1.0000
12.0800 283.0000 1.0000
12.1000 281.0000 1.0000
12.1200 275.0000 1.0000
12.1400 276.0000 1.0000
12.1600 275.0000 1.0000
12.1800 289.0000 1.0000
12.2000 296.0000 1.0000
12.2200 311.0000 1.0000
12.2400 303.0000 1.0000
12.2600 297.0000 1.0000
12.2800 305.0000 1.0000
12.3000 287.0000 1.0000
12.3200 270.0000 1.0000
12.3400 273.0000 1.0000
12.3600 283.0000 1.0000
12.3800 283.0000 1.0000
12.4000 278.0000 1.0000
12.4200 295.0000 1.0000
12.4400 289.0000 1.0000
12.4600 279.0000 1.0000
12.4800 270.0000 1.0000
12.5000 265.0000 1.0000
12.5200 275.0000 1.0000
12.5400 282.0000 1.0000
12.5600 286.0000 1.0000
12.5800 275.0000 1.0000
12.6000 284.0000 1.0000
12.6200 302.0000 1.0000
12.6400 289.0000 1.0000
12.6600 284.0000 1.0000
12.6800 294.0000 1.0000
12.7000 274.0000 1.0000
12.7200 281.0000 1.0000
12.7400 300.0000 1.0000
12.7600 308.0000 1.0000
12.7800 284.0000 1.0000
12.8000 276.0000 1.0000
12.8200 289.0000 1.0000
12.8400 291.0000 1.0000
12.8600 289.0000 1.0000
12.8800 275.0000 1.0000
12.9000 291.0000 1.0000
12.9200 282.0000 1.0000
12.9400 262.0000 1.0000
12.9600 271.0000 1.0000
12.9800 277.0000 1.0000
13.0000 279.0000 1.0000
13.0200 285.0000 1.0000
13.0400 275.0000 1.0000
13.0600 269.0000 1.0000
13.0800 289.0000 1.0000
13.1000 280.0000 1.0000
13.1200 265.0000 1.0000
13.1400 276.0000 1.0000
13.1600 264.0000 1.0000
13.1800 263.0000 1.0000
13.2000 265.0000 1.0000
13.2200 255.0000 1.0000
13.2400 274.0000 1.0000
13.2600 279.0000 1.0000
13.2800 271.0000 1.0000
13.3000 272.0000 1.0000
13.3200 250.0000 1.0000
13.3400 248.0000 1.0000
13.3600 260.0000 1.0000
13.3800 274.0000 1.0000
13.4000 272.0000 1.0000
13.4200 270.0000 1.0000
13.4400 260.0000 1.0000
13.4600 271.0000 1.0000
13.4800 285.0000 1.0000
13.5000 262.0000 1.0000
13.5200 251.0000 1.0000
13.5400 269.0000 1.0000
13.5600 276.0000 1.0000
13.5800 273.0000 1.0000
13.6000 261.0000 1.0000
13.6200 260.0000 1.0000
13.6400 246.0000 1.0000
13.6600 244.0000 1.0000
13.6800 275.0000 1.0000
13.7000 288.0000 1.0000
13.7200 280.0000 1.0000
13.7400 266.0000 1.0000
13.7600 264.0000 1.0000
13.7800 265.0000 1.0000
13.8000 254.0000 1.0000
13.8200 261.0000 1.0000
13.8400 272.0000 1.0000
13.8600 258.0000 1.0000
13.8800 268.0000 1.0000
13.9000 276.0000 1.0000
13.9200 257.0000 1.0000
13.9400 254.0000 1.0000
13.9600 243.0000 1.0000
13.9800 250.0000 1.0000
14.0000 267.0000 1.0000
14.0200 264.0000 1.0000
14.0400 260.0000 1.0000
14.0600 248.0000 1.0000
14.0800 239.0000 1.0000
14.1000 250.0000 1.0000
14.1200 257.0000 1.0000
14.1400 254.0000 1.0000
14.1600 259.0000 1.0000
14.1800 261.0000 1.0000
14.2000 265.0000 1.0000
14.2200 258.0000 1.0000
14.2400 244.0000 1.0000
14.2600 236.0000 1.0000
14.2800 228.0000 1.0000
14.3000 236.0000 1.0000
14.3200 248.0000 1.0000
14.3400 269.0000 1.0000
14.3600 270.0000 1.0000
14.3800 250.0000 1.0000
14.4000 257.0000 1.0000
14.4200 253.0000 1.0000
