*RAS_DATA_START
*RAS_HEADER_START
*CORR_POS_DB_NAME "Correct_20190620"
*CORR_POS_GONIO_RADIUS ""
*CORR_POS_NODE_INDEX01 ""
*CORR_POS_NODE_INDEX02 ""
*CORR_POS_NODE_INDEX03 ""
*CORR_POS_NODE_INDEX04 ""
*CORR_POS_NODE_INDEX05 ""
*CORR_POS_NODE_INDEX06 ""
*CORR_POS_NODE_INDEX07 ""
*CORR_POS_NODE_INDEX08 ""
*CORR_POS_NODE_INDEX09 ""
*CORR_POS_NODE_INDEX10 ""
*CORR_POS_NODE_INDEX11 ""
*CORR_POS_NODE_LABEL01 "Si(111)"
*CORR_POS_NODE_LABEL02 "Si(220)"
*CORR_POS_NODE_LABEL03 "Si(311)"
*CORR_POS_NODE_LABEL04 "Si(400)"
*CORR_POS_NODE_LABEL05 "Si(331)"
*CORR_POS_NODE_LABEL06 "Si(422)"
*CORR_POS_NODE_LABEL07 "Si(511)"
*CORR_POS_NODE_LABEL08 "Si(440)"
*CORR_POS_NODE_LABEL09 "Si(531)"
*CORR_POS_NODE_LABEL10 "Si(620)"
*CORR_POS_NODE_LABEL11 "Si(533)"
*CORR_POS_NODE_POS_CALC01 "28.4005"
*CORR_POS_NODE_POS_CALC02 "47.2634"
*CORR_POS_NODE_POS_CALC03 "56.0825"
*CORR_POS_NODE_POS_CALC04 "69.0892"
*CORR_POS_NODE_POS_CALC05 "76.335"
*CORR_POS_NODE_POS_CALC06 "87.989"
*CORR_POS_NODE_POS_CALC07 "94.9117"
*CORR_POS_NODE_POS_CALC08 "106.669"
*CORR_POS_NODE_POS_CALC09 "114.054"
*CORR_POS_NODE_POS_CALC10 "127.509"
*CORR_POS_NODE_POS_CALC11 "136.859"
*CORR_POS_NODE_POS_MEAS01 "28.3879"
*CORR_POS_NODE_POS_MEAS02 "47.243"
*CORR_POS_NODE_POS_MEAS03 "56.0511"
*CORR_POS_NODE_POS_MEAS04 "69.0708"
*CORR_POS_NODE_POS_MEAS05 "76.3178"
*CORR_POS_NODE_POS_MEAS06 "87.9728"
*CORR_POS_NODE_POS_MEAS07 "94.8964"
*CORR_POS_NODE_POS_MEAS08 "106.655"
*CORR_POS_NODE_POS_MEAS09 "114.033"
*CORR_POS_NODE_POS_MEAS10 "127.497"
*CORR_POS_NODE_POS_MEAS11 "136.844"
*CORR_POS_OPT_ATTR "集中法"
*CORR_POS_PARAM_MU ""
*CORR_POS_PARAM_PL ""
*CORR_POS_SEMODEL_TYPE "0"
*CORR_POS_STANDARD_TYPE ""
*CORR_POS_VALUE_ANALYZER "None"
*CORR_POS_VALUE_CMONO "None_None"
*CORR_POS_VALUE_IMONO "None"
*CORR_POS_VALUE_IS "1.250deg"
*CORR_POS_VALUE_ISL "10.0mm"
*CORR_POS_VALUE_ISOLLER "2.5deg"
*CORR_POS_VALUE_RS1 "13.0mm"
*CORR_POS_VALUE_RS2 "13.0mm"
*CORR_POS_VALUE_RSOLLER "2.5deg"
*CORR_POS_XG_FOCUS_L ""
*CORR_POS_XG_WAVE_TYPE ""
*CORR_POS_XG_WAVE_VALUE ""
*DISP_FMT_X "%.2f"
*DISP_FMT_Y "%.0f"
*DISP_FULLSCALE "10295.0000000000"
*DISP_LINE_COLOR "255.0000000000"
*DISP_LINE_STYLE "0.0000000000"
*DISP_LINE_WIDTH "0.2500000000"
*DISP_NOTE "測定データ-2"
*DISP_OFFSET_Y "0.0000000000"
*DISP_PEAKSEARCH_UNIT_Y "cps"
*DISP_RANGE_BOTTOM "0.0000000000"
*DISP_RANGE_LEFT "5.0000000000"
*DISP_RANGE_LOGCUTOFF "0.0100000000"
*DISP_RANGE_RIGHT "60.0000000000"
*DISP_RANGE_TOP "10295.0000000000"
*DISP_SCALE_MODE_Y "0.0000000000"
*DISP_TAB_NAME "2θ/θ"
*DISP_TITLE_Y "強度"
*DISP_UNIT_Y "cps"
*DISP_WINDOW_NAME "MSG_MACROENGINE"
*FILE_COMMENT " "
*FILE_MD5 ""
*FILE_MEMO " "
*FILE_OPERATOR "administrator"
*FILE_PART_ID "MEAS_PBEA_00223"
*FILE_SAMPLE " "
*FILE_TYPE "RAS_RAW"
*FILE_USERGROUP "システムマネージャ"
*FILE_VERSION "1.0000000000"
*HW_ATTACHMENT_ID "ATT1025"
*HW_ATTACHMENT_NAME "標準試料台|Standard Sample Stage"
*HW_COUNTER_ID-0 "CUT0025"
*HW_COUNTER_ID-1 "CUT0020"
*HW_COUNTER_ID-2 "CUT0020"
*HW_COUNTER_ID-3 "CMC0021"
*HW_COUNTER_NAME-0 "D/teX Ultra2|D/teX Ultra2"
*HW_COUNTER_NAME-1 "None|None"
*HW_COUNTER_NAME-2 "None|None"
*HW_COUNTER_NAME-3 "検出器モノクロメータ|Detector monochromator"
*HW_COUNTER_SELECT_NAME "D/teX Ultra2|D/teX Ultra2"
*HW_GONIOMETER_ID "GON0070"
*HW_GONIOMETER_NAME "MiniFlex 300/600|MiniFlex 300/600"
*HW_GONIOMETER_RADIUS-0 "79.0"
*HW_GONIOMETER_RADIUS-1 "91.5"
*HW_GONIOMETER_RADIUS-2 "150.0"
*HW_GONIOMETER_RADIUS-3 "0"
*HW_GONIOMETER_RADIUS-4 "92.7"
*HW_GONIOMETER_RADIUS-5 "139.3"
*HW_GONIOMETER_RADIUS-6 "46.6"
*HW_GONIOMETER_RADIUS-7 "150.0"
*HW_I_OPT_ID-0 "ISL0021"
*HW_I_OPT_ID-1 "ISO0021"
*HW_I_OPT_NAME-0 "発散スリット|Divergence slit"
*HW_I_OPT_NAME-1 "入射平行スリット|Incident parallel slit"
*HW_R_ATTENUATER_AUTOMODE "0"
*HW_R_OPT_ID-0 "RSS0021"
*HW_R_OPT_ID-1 "RSO0021"
*HW_R_OPT_ID-2 "RRS0021"
*HW_R_OPT_NAME-0 "散乱スリット|Scattering slit"
*HW_R_OPT_NAME-1 "受光平行スリット|Receiving soller slit"
*HW_R_OPT_NAME-2 "受光スリット|Receiving slit"
*HW_SAMPLE_HOLDER_ID "SMP0000"
*HW_SAMPLE_HOLDER_NAME "無し|None"
*HW_XG_CURRENT_MAX "15"
*HW_XG_CURRENT_MIN "2"
*HW_XG_CURRENT_RESOLUTION "1"
*HW_XG_CURRENT_UNIT "mA"
*HW_XG_FOCUS "1mm x 10mm"
*HW_XG_FOCUS_TYPE "Normal"
*HW_XG_ID "1060"
*HW_XG_NAME "300W/600W 封入管-B|300W/600W Sealed tube-B"
*HW_XG_TARGET_ATOMIC_NUMBER "29.0000000000"
*HW_XG_TARGET_NAME "Cu"
*HW_XG_TYPE "Hermetic"
*HW_XG_VOLTAGE_MAX "40"
*HW_XG_VOLTAGE_MIN "20"
*HW_XG_VOLTAGE_RESOLUTION "1"
*HW_XG_VOLTAGE_UNIT "kV"
*HW_XG_WATT_MAX "1"
*HW_XG_WATT_UNIT "kW"
*HW_XG_WAVE_LENGTH_ALPHA1 "1.540593"
*HW_XG_WAVE_LENGTH_ALPHA2 "1.544414"
*HW_XG_WAVE_LENGTH_BETA "1.392250"
*MEAS_COND_AXIS_NAME-0 "2θ/θ"
*MEAS_COND_AXIS_NAME-1 "Soller(inc.)"
*MEAS_COND_AXIS_NAME-2 "IHS"
*MEAS_COND_AXIS_NAME-3 "DS"
*MEAS_COND_AXIS_NAME-4 "SS"
*MEAS_COND_AXIS_NAME-5 "Soller(rec.)"
*MEAS_COND_AXIS_NAME-6 "RS"
*MEAS_COND_AXIS_NAME-7 "フィルター"
*MEAS_COND_AXIS_NAME-8 "モノクロメータ"
*MEAS_COND_AXIS_NAME-9 "PHA"
*MEAS_COND_AXIS_NAME_INTERNAL-0 "TwoThetaTheta"
*MEAS_COND_AXIS_NAME_INTERNAL-1 "IncidentSollerSlit"
*MEAS_COND_AXIS_NAME_INTERNAL-2 "IncidentAxdSlit"
*MEAS_COND_AXIS_NAME_INTERNAL-3 "IncidentSlitBox"
*MEAS_COND_AXIS_NAME_INTERNAL-4 "ReceivingSlitBox1"
*MEAS_COND_AXIS_NAME_INTERNAL-5 "ReceivingSollerSlit"
*MEAS_COND_AXIS_NAME_INTERNAL-6 "ReceivingSlitBox2"
*MEAS_COND_AXIS_NAME_INTERNAL-7 "Filter"
*MEAS_COND_AXIS_NAME_INTERNAL-8 "CounterMonochromator"
*MEAS_COND_AXIS_NAME_INTERNAL-9 "PHA"
*MEAS_COND_AXIS_NAME_MAGICNO-0 "268632064.0000000000"
*MEAS_COND_AXIS_NAME_MAGICNO-1 "20971521.0000000000"
*MEAS_COND_AXIS_NAME_MAGICNO-2 "22020097.0000000000"
*MEAS_COND_AXIS_NAME_MAGICNO-3 "22020097.0000000000"
*MEAS_COND_AXIS_NAME_MAGICNO-4 "23068673.0000000000"
*MEAS_COND_AXIS_NAME_MAGICNO-5 "20971521.0000000000"
*MEAS_COND_AXIS_NAME_MAGICNO-6 "23068673.0000000000"
*MEAS_COND_AXIS_NAME_MAGICNO-7 "20971521.0000000000"
*MEAS_COND_AXIS_NAME_MAGICNO-8 "20971521.0000000000"
*MEAS_COND_AXIS_NAME_MAGICNO-9 "0.0000000000"
*MEAS_COND_AXIS_OFFSET-0 "0.0000000000"
*MEAS_COND_AXIS_OFFSET-1 "-"
*MEAS_COND_AXIS_OFFSET-2 "-"
*MEAS_COND_AXIS_OFFSET-3 "-"
*MEAS_COND_AXIS_OFFSET-4 "-"
*MEAS_COND_AXIS_OFFSET-5 "-"
*MEAS_COND_AXIS_OFFSET-6 "-"
*MEAS_COND_AXIS_OFFSET-7 "-"
*MEAS_COND_AXIS_OFFSET-8 "-"
*MEAS_COND_AXIS_OFFSET-9 "-"
*MEAS_COND_AXIS_POSITION-0 "12.0000000000"
*MEAS_COND_AXIS_POSITION-1 "2.5deg"
*MEAS_COND_AXIS_POSITION-2 "10.0mm"
*MEAS_COND_AXIS_POSITION-3 "1.250deg"
*MEAS_COND_AXIS_POSITION-4 "8.0mm"
*MEAS_COND_AXIS_POSITION-5 "2.5deg"
*MEAS_COND_AXIS_POSITION-6 "13.0mm(Open)"
*MEAS_COND_AXIS_POSITION-7 "K-beta(x1.5)"
*MEAS_COND_AXIS_POSITION-8 "None"
*MEAS_COND_AXIS_POSITION-9 "36.0000000000"
*MEAS_COND_AXIS_UNIT-0 "deg"
*MEAS_COND_AXIS_UNIT-1 ""
*MEAS_COND_AXIS_UNIT-2 ""
*MEAS_COND_AXIS_UNIT-3 ""
*MEAS_COND_AXIS_UNIT-4 ""
*MEAS_COND_AXIS_UNIT-5 ""
*MEAS_COND_AXIS_UNIT-6 ""
*MEAS_COND_AXIS_UNIT-7 ""
*MEAS_COND_AXIS_UNIT-8 ""
*MEAS_COND_AXIS_UNIT-9 "div"
*MEAS_COND_CORRECTION_SLIT_COUNTERMONO "None"
*MEAS_COND_CORRECTION_SLIT_DS "1.250deg"
*MEAS_COND_CORRECTION_SLIT_FILTER "None"
*MEAS_COND_CORRECTION_SLIT_IHS "10.0mm"
*MEAS_COND_CORRECTION_SLIT_RS "13.0mm"
*MEAS_COND_CORRECTION_SLIT_SOLLER_INC "2.5deg"
*MEAS_COND_CORRECTION_SLIT_SOLLER_REC "2.5deg"
*MEAS_COND_CORRECTION_SLIT_SS "8.0mm"
*MEAS_COND_COUNTER_CNTLOSS_CORR "0.0000000000"
*MEAS_COND_COUNTER_PHABASE "36.0000000000"
*MEAS_COND_COUNTER_PHAWINDOW "16.0000000000"
*MEAS_COND_COUNTER_PHA_UNIT "div"
*MEAS_COND_COUNTER_TAUDIFF "0.2500000000"
*MEAS_COND_COUNTER_TAUINT "0.7500000000"
*MEAS_COND_IRRADIATION_MODE "OFF"
*MEAS_COND_IRRADIATION_WIDTH ""
*MEAS_COND_OPT_ATTR " "
*MEAS_COND_OPT_NAME ""
*MEAS_COND_UNSYMMETRIC_MODE "OFF"
*MEAS_COND_XG_CURRENT "15.0000000000"
*MEAS_COND_XG_VOLTAGE "40.0000000000"
*MEAS_COND_XG_WAVE_TYPE "Ka"
*MEAS_DATA_COUNT "2751.0000000000"
*MEAS_SCAN_AXIS_X "2θ/θ"
*MEAS_SCAN_AXIS_X_INTERNAL "TwoThetaTheta"
*MEAS_SCAN_END_TIME "08/31/20 12:59:31"
*MEAS_SCAN_MODE "CONTINUOUS"
*MEAS_SCAN_MONITOR "0"
*MEAS_SCAN_RESOLUTION_X "0.0025"
*MEAS_SCAN_SPEED "5.000000"
*MEAS_SCAN_SPEED_UNIT "deg/min"
*MEAS_SCAN_SPEED_USER "5.000000"
*MEAS_SCAN_START "5.0000000000"
*MEAS_SCAN_START_TIME "08/31/20 12:47:14"
*MEAS_SCAN_STEP "0.0200000000"
*MEAS_SCAN_STOP "60.0000000000"
*MEAS_SCAN_UNIT_X "deg"
*MEAS_SCAN_UNIT_Y "counts"
*SLIT_SYSTEM "0"
*RAS_HEADER_END
*RAS_INT_START
5.0000 624.0000 1.0000
5.0200 495.0000 1.0000
5.0400 534.0000 1.0000
5.0600 517.0000 1.0000
5.0800 526.0000 1.0000
5.1000 520.0000 1.0000
5.1200 554.0000 1.0000
5.1400 570.0000 1.0000
5.1600 521.0000 1.0000
5.1800 544.0000 1.0000
5.2000 571.0000 1.0000
5.2200 529.0000 1.0000
5.2400 542.0000 1.0000
5.2600 568.0000 1.0000
5.2800 509.0000 1.0000
5.3000 497.0000 1.0000
5.3200 516.0000 1.0000
5.3400 528.0000 1.0000
5.3600 557.0000 1.0000
5.3800 510.0000 1.0000
5.4000 484.0000 1.0000
5.4200 500.0000 1.0000
5.4400 487.0000 1.0000
5.4600 551.0000 1.0000
5.4800 586.0000 1.0000
5.5000 581.0000 1.0000
5.5200 551.0000 1.0000
5.5400 512.0000 1.0000
5.5600 558.0000 1.0000
5.5800 562.0000 1.0000
5.6000 510.0000 1.0000
5.6200 495.0000 1.0000
5.6400 530.0000 1.0000
5.6600 577.0000 1.0000
5.6800 615.0000 1.0000
5.7000 534.0000 1.0000
5.7200 532.0000 1.0000
5.7400 595.0000 1.0000
5.7600 571.0000 1.0000
5.7800 594.0000 1.0000
5.8000 596.0000 1.0000
5.8200 504.0000 1.0000
5.8400 521.0000 1.0000
5.8600 510.0000 1.0000
5.8800 461.0000 1.0000
5.9000 589.0000 1.0000
5.9200 574.0000 1.0000
5.9400 550.0000 1.0000
5.9600 526.0000 1.0000
5.9800 540.0000 1.0000
6.0000 529.0000 1.0000
6.0200 555.0000 1.0000
6.0400 572.0000 1.0000
6.0600 595.0000 1.0000
6.0800 510.0000 1.0000
6.1000 502.0000 1.0000
6.1200 488.0000 1.0000
6.1400 499.0000 1.0000
6.1600 531.0000 1.0000
6.1800 577.0000 1.0000
6.2000 536.0000 1.0000
6.2200 567.0000 1.0000
6.2400 548.0000 1.0000
6.2600 543.0000 1.0000
6.2800 541.0000 1.0000
6.3000 537.0000 1.0000
6.3200 585.0000 1.0000
6.3400 498.0000 1.0000
6.3600 540.0000 1.0000
6.3800 515.0000 1.0000
6.4000 554.0000 1.0000
6.4200 503.0000 1.0000
6.4400 496.0000 1.0000
6.4600 549.0000 1.0000
6.4800 588.0000 1.0000
6.5000 589.0000 1.0000
6.5200 513.0000 1.0000
6.5400 503.0000 1.0000
6.5600 578.0000 1.0000
6.5800 573.0000 1.0000
6.6000 608.0000 1.0000
6.6200 547.0000 1.0000
6.6400 532.0000 1.0000
6.6600 541.0000 1.0000
6.6800 582.0000 1.0000
6.7000 524.0000 1.0000
6.7200 520.0000 1.0000
6.7400 524.0000 1.0000
6.7600 500.0000 1.0000
6.7800 587.0000 1.0000
6.8000 571.0000 1.0000
6.8200 548.0000 1.0000
6.8400 609.0000 1.0000
6.8600 536.0000 1.0000
6.8800 600.0000 1.0000
6.9000 571.0000 1.0000
6.9200 578.0000 1.0000
6.9400 557.0000 1.0000
6.9600 580.0000 1.0000
6.9800 554.0000 1.0000
7.0000 571.0000 1.0000
7.0200 535.0000 1.0000
7.0400 517.0000 1.0000
7.0600 529.0000 1.0000
7.0800 575.0000 1.0000
7.1000 495.0000 1.0000
7.1200 533.0000 1.0000
7.1400 576.0000 1.0000
7.1600 517.0000 1.0000
7.1800 559.0000 1.0000
7.2000 511.0000 1.0000
7.2200 559.0000 1.0000
7.2400 637.0000 1.0000
7.2600 579.0000 1.0000
7.2800 600.0000 1.0000
7.3000 601.0000 1.0000
7.3200 625.0000 1.0000
7.3400 570.0000 1.0000
7.3600 525.0000 1.0000
7.3800 519.0000 1.0000
7.4000 598.0000 1.0000
7.4200 592.0000 1.0000
7.4400 598.0000 1.0000
7.4600 578.0000 1.0000
7.4800 564.0000 1.0000
7.5000 610.0000 1.0000
7.5200 628.0000 1.0000
7.5400 552.0000 1.0000
7.5600 563.0000 1.0000
7.5800 584.0000 1.0000
7.6000 578.0000 1.0000
7.6200 630.0000 1.0000
7.6400 572.0000 1.0000
7.6600 588.0000 1.0000
7.6800 567.0000 1.0000
7.7000 546.0000 1.0000
7.7200 593.0000 1.0000
7.7400 594.0000 1.0000
7.7600 559.0000 1.0000
7.7800 627.0000 1.0000
7.8000 592.0000 1.0000
7.8200 526.0000 1.0000
7.8400 565.0000 1.0000
7.8600 587.0000 1.0000
7.8800 574.0000 1.0000
7.9000 589.0000 1.0000
7.9200 597.0000 1.0000
7.9400 576.0000 1.0000
7.9600 582.0000 1.0000
7.9800 590.0000 1.0000
8.0000 600.0000 1.0000
8.0200 580.0000 1.0000
8.0400 641.0000 1.0000
8.0600 600.0000 1.0000
8.0800 610.0000 1.0000
8.1000 604.0000 1.0000
8.1200 619.0000 1.0000
8.1400 606.0000 1.0000
8.1600 598.0000 1.0000
8.1800 589.0000 1.0000
8.2000 606.0000 1.0000
8.2200 605.0000 1.0000
8.2400 630.0000 1.0000
8.2600 599.0000 1.0000
8.2800 582.0000 1.0000
8.3000 565.0000 1.0000
8.3200 602.0000 1.0000
8.3400 594.0000 1.0000
8.3600 624.0000 1.0000
8.3800 598.0000 1.0000
8.4000 596.0000 1.0000
8.4200 604.0000 1.0000
8.4400 604.0000 1.0000
8.4600 612.0000 1.0000
8.4800 606.0000 1.0000
8.5000 648.0000 1.0000
8.5200 667.0000 1.0000
8.5400 650.0000 1.0000
8.5600 607.0000 1.0000
8.5800 575.0000 1.0000
8.6000 608.0000 1.0000
8.6200 579.0000 1.0000
8.6400 603.0000 1.0000
8.6600 630.0000 1.0000
8.6800 555.0000 1.0000
8.7000 627.0000 1.0000
8.7200 579.0000 1.0000
8.7400 586.0000 1.0000
8.7600 597.0000 1.0000
8.7800 577.0000 1.0000
8.8000 665.0000 1.0000
8.8200 621.0000 1.0000
8.8400 596.0000 1.0000
8.8600 626.0000 1.0000
8.8800 610.0000 1.0000
8.9000 605.0000 1.0000
8.9200 605.0000 1.0000
8.9400 610.0000 1.0000
8.9600 607.0000 1.0000
8.9800 612.0000 1.0000
9.0000 644.0000 1.0000
9.0200 630.0000 1.0000
9.0400 608.0000 1.0000
9.0600 627.0000 1.0000
9.0800 603.0000 1.0000
9.1000 565.0000 1.0000
9.1200 635.0000 1.0000
9.1400 654.0000 1.0000
9.1600 661.0000 1.0000
9.1800 631.0000 1.0000
9.2000 652.0000 1.0000
9.2200 655.0000 1.0000
9.2400 659.0000 1.0000
9.2600 640.0000 1.0000
9.2800 642.0000 1.0000
9.3000 649.0000 1.0000
9.3200 634.0000 1.0000
9.3400 632.0000 1.0000
9.3600 619.0000 1.0000
9.3800 640.0000 1.0000
9.4000 686.0000 1.0000
9.4200 671.0000 1.0000
9.4400 651.0000 1.0000
9.4600 642.0000 1.0000
9.4800 656.0000 1.0000
9.5000 630.0000 1.0000
9.5200 667.0000 1.0000
9.5400 660.0000 1.0000
9.5600 667.0000 1.0000
9.5800 665.0000 1.0000
9.6000 660.0000 1.0000
9.6200 655.0000 1.0000
9.6400 677.0000 1.0000
9.6600 712.0000 1.0000
9.6800 699.0000 1.0000
9.7000 649.0000 1.0000
9.7200 640.0000 1.0000
9.7400 643.0000 1.0000
9.7600 645.0000 1.0000
9.7800 659.0000 1.0000
9.8000 677.0000 1.0000
9.8200 678.0000 1.0000
9.8400 672.0000 1.0000
9.8600 616.0000 1.0000
9.8800 668.0000 1.0000
9.9000 670.0000 1.0000
9.9200 690.0000 1.0000
9.9400 701.0000 1.0000
9.9600 738.0000 1.0000
9.9800 693.0000 1.0000
10.0000 699.0000 1.0000
10.0200 677.0000 1.0000
10.0400 683.0000 1.0000
10.0600 712.0000 1.0000
10.0800 740.0000 1.0000
10.1000 692.0000 1.0000
10.1200 711.0000 1.0000
10.1400 726.0000 1.0000
10.1600 741.0000 1.0000
10.1800 775.0000 1.0000
10.2000 764.0000 1.0000
10.2200 757.0000 1.0000
10.2400 747.0000 1.0000
10.2600 725.0000 1.0000
10.2800 740.0000 1.0000
10.3000 760.0000 1.0000
10.3200 770.0000 1.0000
10.3400 732.0000 1.0000
10.3600 727.0000 1.0000
10.3800 733.0000 1.0000
10.4000 708.0000 1.0000
10.4200 766.0000 1.0000
10.4400 791.0000 1.0000
10.4600 770.0000 1.0000
10.4800 774.0000 1.0000
10.5000 773.0000 1.0000
10.5200 729.0000 1.0000
10.5400 743.0000 1.0000
10.5600 765.0000 1.0000
10.5800 781.0000 1.0000
10.6000 809.0000 1.0000
10.6200 801.0000 1.0000
10.6400 785.0000 1.0000
10.6600 787.0000 1.0000
10.6800 782.0000 1.0000
10.7000 802.0000 1.0000
10.7200 818.0000 1.0000
10.7400 832.0000 1.0000
10.7600 791.0000 1.0000
10.7800 801.0000 1.0000
10.8000 827.0000 1.0000
10.8200 845.0000 1.0000
10.8400 804.0000 1.0000
10.8600 787.0000 1.0000
10.8800 794.0000 1.0000
10.9000 864.0000 1.0000
10.9200 882.0000 1.0000
10.9400 846.0000 1.0000
10.9600 831.0000 1.0000
10.9800 889.0000 1.0000
11.0000 892.0000 1.0000
11.0200 858.0000 1.0000
11.0400 859.0000 1.0000
11.0600 859.0000 1.0000
11.0800 871.0000 1.0000
11.1000 916.0000 1.0000
11.1200 888.0000 1.0000
11.1400 863.0000 1.0000
11.1600 853.0000 1.0000
11.1800 830.0000 1.0000
11.2000 880.0000 1.0000
11.2200 890.0000 1.0000
11.2400 855.0000 1.0000
11.2600 840.0000 1.0000
11.2800 835.0000 1.0000
11.3000 884.0000 1.0000
11.3200 899.0000 1.0000
11.3400 918.0000 1.0000
11.3600 940.0000 1.0000
11.3800 920.0000 1.0000
11.4000 928.0000 1.0000
11.4200 932.0000 1.0000
11.4400 915.0000 1.0000
11.4600 920.0000 1.0000
11.4800 928.0000 1.0000
11.5000 1003.0000 1.0000
11.5200 966.0000 1.0000
11.5400 953.0000 1.0000
11.5600 980.0000 1.0000
11.5800 998.0000 1.0000
11.6000 979.0000 1.0000
11.6200 967.0000 1.0000
11.6400 1007.0000 1.0000
11.6600 1001.0000 1.0000
11.6800 978.0000 1.0000
11.7000 949.0000 1.0000
11.7200 949.0000 1.0000
11.7400 1002.0000 1.0000
11.7600 953.0000 1.0000
11.7800 979.0000 1.0000
11.8000 1033.0000 1.0000
11.8200 1049.0000 1.0000
11.8400 1033.0000 1.0000
11.8600 1014.0000 1.0000
11.8800 1000.0000 1.0000
11.9000 978.0000 1.0000
11.9200 1015.0000 1.0000
11.9400 1049.0000 1.0000
11.9600 1034.0000 1.0000
11.9800 1015.0000 1.0000
12.0000 1002.0000 1.0000
12.0200 977.0000 1.0000
12.0400 1027.0000 1.0000
12.0600 1058.0000 1.0000
12.0800 1065.0000 1.0000
12.1000 1068.0000 1.0000
12.1200 1088.0000 1.0000
12.1400 1088.0000 1.0000
12.1600 1061.0000 1.0000
12.1800 1037.0000 1.0000
12.2000 1055.0000 1.0000
12.2200 1074.0000 1.0000
12.2400 1044.0000 1.0000
12.2600 1024.0000 1.0000
12.2800 1051.0000 1.0000
12.3000 1113.0000 1.0000
12.3200 1067.0000 1.0000
12.3400 1047.0000 1.0000
12.3600 1068.0000 1.0000
12.3800 1088.0000 1.0000
12.4000 1095.0000 1.0000
12.4200 1110.0000 1.0000
12.4400 1101.0000 1.0000
12.4600 1066.0000 1.0000
12.4800 1078.0000 1.0000
12.5000 1067.0000 1.0000
12.5200 1044.0000 1.0000
12.5400 1058.0000 1.0000
12.5600 1102.0000 1.0000
12.5800 1081.0000 1.0000
12.6000 1053.0000 1.0000
12.6200 1049.0000 1.0000
12.6400 1049.0000 1.0000
12.6600 1045.0000 1.0000
12.6800 1028.0000 1.0000
12.7000 1033.0000 1.0000
12.7200 1066.0000 1.0000
12.7400 1067.0000 1.0000
12.7600 1039.0000 1.0000
12.7800 1057.0000 1.0000
12.8000 1070.0000 1.0000
12.8200 1064.0000 1.0000
12.8400 1072.0000 1.0000
12.8600 1090.0000 1.0000
12.8800 1059.0000 1.0000
12.9000 1021.0000 1.0000
12.9200 1003.0000 1.0000
12.9400 989.0000 1.0000
12.9600 1029.0000 1.0000
12.9800 1058.0000 1.0000
13.0000 1026.0000 1.0000
13.0200 1006.0000 1.0000
13.0400 994.0000 1.0000
13.0600 1010.0000 1.0000
13.0800 1081.0000 1.0000
13.1000 1055.0000 1.0000
13.1200 1031.0000 1.0000
13.1400 1032.0000 1.0000
13.1600 989.0000 1.0000
13.1800 988.0000 1.0000
13.2000 992.0000 1.0000
13.2200 989.0000 1.0000
13.2400 1022.0000 1.0000
13.2600 1026.0000 1.0000
13.2800 1010.0000 1.0000
13.3000 1003.0000 1.0000
13.3200 999.0000 1.0000
13.3400 1008.0000 1.0000
13.3600 975.0000 1.0000
13.3800 940.0000 1.0000
13.4000 972.0000 1.0000
13.4200 956.0000 1.0000
13.4400 965.0000 1.0000
13.4600 1016.0000 1.0000
13.4800 991.0000 1.0000
13.5000 949.0000 1.0000
13.5200 956.0000 1.0000
13.5400 988.0000 1.0000
13.5600 983.0000 1.0000
13.5800 982.0000 1.0000
13.6000 952.0000 1.0000
13.6200 910.0000 1.0000
13.6400 934.0000 1.0000
13.6600 918.0000 1.0000
13.6800 949.0000 1.0000
13.7000 1001.0000 1.0000
13.7200 979.0000 1.0000
13.7400 934.0000 1.0000
13.7600 938.0000 1.0000
13.7800 960.0000 1.0000
13.8000 952.0000 1.0000
13.8200 1001.0000 1.0000
13.8400 992.0000 1.0000
13.8600 937.0000 1.0000
13.8800 921.0000 1.0000
13.9000 946.0000 1.0000
13.9200 992.0000 1.0000
13.9400 984.0000 1.0000
13.9600 944.0000 1.0000
13.9800 964.0000 1.0000
14.0000 956.0000 1.0000
14.0200 905.0000 1.0000
14.0400 908.0000 1.0000
14.0600 937.0000 1.0000
14.0800 949.0000 1.0000
14.1000 930.0000 1.0000
14.1200 911.0000 1.0000
14.1400 936.0000 1.0000
14.1600 931.0000 1.0000
14.1800 915.0000 1.0000
14.2000 944.0000 1.0000
14.2200 957.0000 1.0000
14.2400 936.0000 1.0000
14.2600 931.0000 1.0000
14.2800 958.0000 1.0000
14.3000 961.0000 1.0000
14.3200 948.0000 1.0000
14.3400 940.0000 1.0000
